Wavelength (nm) 	 Efficiency Div Wav 1 (%) 	 Efficiency Div Wav 2 (%) 	 Efficiency Div Wav total (%) 	 Jsc Div Wav 1 (A m^-2) 	 Jsc Div Wav 2 (A m^-2) 	 Jsc Div Wav total (A m^-2) 	 EQE Curve 1 (%) 	 EQE Curve 2 (%) 	Jsc 1 correction factor: 0.12112841760658835	Jsc 2 correction factor: 0.11138078088588836
400	0.000	11.892	11.892	0.000	241.850	241.850	10.421	25.882
401	0.001	11.888	11.889	0.034	241.772	241.806	11.198	28.075
402	0.002	11.884	11.886	0.073	241.683	241.756	11.252	28.702
403	0.003	11.879	11.883	0.113	241.588	241.701	11.118	28.444
404	0.005	11.875	11.879	0.151	241.497	241.648	10.934	27.922
405	0.006	11.870	11.876	0.190	241.406	241.596	11.031	27.980
406	0.007	11.866	11.873	0.229	241.316	241.545	11.121	28.449
407	0.008	11.861	11.870	0.266	241.227	241.494	11.520	29.270
408	0.009	11.857	11.866	0.305	241.137	241.442	11.689	29.922
409	0.011	11.852	11.863	0.346	241.040	241.387	11.936	30.587
410	0.012	11.847	11.859	0.391	240.933	241.325	11.984	30.901
411	0.013	11.842	11.856	0.430	240.841	241.271	12.091	31.634
412	0.014	11.837	11.852	0.474	240.735	241.209	12.294	32.048
413	0.016	11.832	11.848	0.522	240.620	241.142	12.286	32.007
414	0.017	11.826	11.843	0.568	240.510	241.078	12.373	32.555
415	0.019	11.821	11.839	0.614	240.399	241.013	12.543	32.540
416	0.020	11.815	11.835	0.663	240.283	240.945	12.745	33.401
417	0.022	11.809	11.831	0.713	240.160	240.874	13.098	33.853
418	0.023	11.803	11.826	0.764	240.038	240.802	12.912	34.349
419	0.025	11.797	11.822	0.813	239.919	240.731	13.023	34.766
420	0.026	11.791	11.817	0.864	239.793	240.656	12.797	34.381
421	0.028	11.785	11.813	0.910	239.678	240.588	12.873	34.505
422	0.029	11.779	11.808	0.963	239.547	240.510	13.136	35.146
423	0.031	11.772	11.803	1.016	239.414	240.430	13.238	35.410
424	0.033	11.766	11.799	1.070	239.284	240.353	13.215	36.157
425	0.034	11.759	11.794	1.122	239.151	240.273	13.106	35.648
426	0.036	11.753	11.789	1.176	239.016	240.193	13.488	36.716
427	0.038	11.746	11.784	1.231	238.881	240.111	13.509	37.390
428	0.039	11.739	11.779	1.284	238.746	240.030	13.529	37.327
429	0.041	11.733	11.774	1.337	238.610	239.947	13.177	36.953
430	0.042	11.727	11.769	1.386	238.485	239.871	13.420	37.920
431	0.044	11.722	11.765	1.426	238.383	239.808	14.214	39.838
432	0.045	11.717	11.761	1.464	238.285	239.749	14.112	39.411
433	0.047	11.709	11.755	1.527	238.122	239.650	14.148	39.568
434	0.048	11.701	11.750	1.587	237.969	239.556	14.036	39.555
435	0.050	11.694	11.744	1.641	237.828	239.469	14.361	40.958
436	0.052	11.686	11.738	1.703	237.667	239.370	14.384	40.583
437	0.054	11.678	11.732	1.771	237.491	239.261	14.156	40.129
438	0.056	11.669	11.725	1.839	237.312	239.151	14.590	41.610
439	0.058	11.661	11.719	1.901	237.150	239.050	14.996	43.323
440	0.060	11.653	11.713	1.962	236.986	238.948	15.210	42.659
441	0.062	11.644	11.706	2.034	236.800	238.834	14.774	42.684
442	0.064	11.635	11.699	2.103	236.616	238.719	15.075	41.932
443	0.067	11.625	11.692	2.178	236.424	238.601	15.671	44.440
444	0.069	11.615	11.684	2.258	236.215	238.473	15.582	44.982
445	0.071	11.605	11.676	2.335	236.009	238.345	15.434	45.099
446	0.074	11.594	11.668	2.415	235.793	238.208	15.747	45.522
447	0.076	11.585	11.661	2.489	235.596	238.085	15.879	46.117
448	0.079	11.573	11.652	2.574	235.369	237.943	16.291	47.116
449	0.081	11.562	11.643	2.662	235.134	237.796	16.568	46.230
450	0.084	11.550	11.634	2.752	234.902	237.654	16.868	48.360
451	0.087	11.538	11.625	2.848	234.650	237.498	16.499	46.062
452	0.090	11.526	11.616	2.945	234.401	237.345	16.358	44.720
453	0.093	11.514	11.607	3.037	234.168	237.205	17.054	46.914
454	0.096	11.503	11.599	3.126	233.941	237.067	17.666	48.121
455	0.099	11.491	11.589	3.226	233.691	236.917	18.334	49.593
456	0.102	11.478	11.580	3.329	233.434	236.763	18.782	49.802
457	0.105	11.465	11.570	3.438	233.167	236.604	18.927	50.552
458	0.108	11.452	11.560	3.549	232.893	236.442	18.843	50.156
459	0.112	11.438	11.550	3.658	232.627	236.285	19.011	49.848
460	0.115	11.425	11.541	3.768	232.361	236.130	19.269	50.941
461	0.119	11.412	11.531	3.879	232.092	235.970	19.750	52.219
462	0.122	11.398	11.520	3.997	231.805	235.802	19.645	51.178
463	0.126	11.384	11.510	4.116	231.519	235.635	19.985	51.045
464	0.130	11.370	11.500	4.238	231.233	235.471	20.150	50.024
465	0.133	11.357	11.490	4.358	230.960	235.319	19.956	49.587
466	0.137	11.343	11.480	4.476	230.693	235.169	20.273	49.956
467	0.141	11.330	11.470	4.598	230.417	235.015	20.655	50.814
468	0.144	11.317	11.461	4.717	230.148	234.865	20.751	50.463
469	0.148	11.303	11.451	4.842	229.869	234.710	21.019	50.844
470	0.152	11.289	11.441	4.969	229.586	234.555	21.719	52.734
471	0.156	11.275	11.431	5.096	229.303	234.399	21.411	51.704
472	0.160	11.261	11.421	5.224	229.019	234.243	20.650	49.099
473	0.164	11.247	11.411	5.355	228.734	234.089	22.252	52.777
474	0.168	11.233	11.400	5.490	228.440	233.929	23.050	54.510
475	0.172	11.217	11.390	5.631	228.131	233.762	22.166	52.453
476	0.176	11.202	11.379	5.773	227.823	233.596	22.259	52.008
477	0.181	11.188	11.368	5.911	227.526	233.437	23.121	54.208
478	0.185	11.172	11.357	6.055	227.216	233.271	22.959	54.315
479	0.190	11.157	11.346	6.203	226.894	233.097	23.152	54.450
480	0.194	11.141	11.335	6.351	226.575	232.926	23.004	52.704
481	0.199	11.125	11.324	6.500	226.261	232.761	22.464	51.290
482	0.203	11.110	11.314	6.645	225.955	232.600	23.210	53.327
483	0.208	11.095	11.302	6.797	225.634	232.431	23.939	54.635
484	0.212	11.079	11.291	6.952	225.309	232.260	23.911	54.498
485	0.217	11.063	11.280	7.104	224.989	232.093	24.354	54.936
486	0.222	11.047	11.269	7.260	224.666	231.927	24.565	55.336
487	0.226	11.034	11.260	7.388	224.403	231.791	25.264	56.275
488	0.230	11.019	11.250	7.534	224.103	231.637	26.276	59.903
489	0.235	11.002	11.238	7.701	223.753	231.454	26.960	60.993
490	0.240	10.986	11.226	7.862	223.418	231.280	27.247	61.333
491	0.246	10.967	11.213	8.045	223.040	231.085	27.751	61.571
492	0.251	10.949	11.201	8.223	222.676	230.899	28.064	63.288
493	0.257	10.932	11.188	8.397	222.318	230.715	28.371	64.228
494	0.262	10.912	11.175	8.584	221.928	230.513	28.488	63.831
495	0.268	10.894	11.162	8.768	221.549	230.317	29.319	64.226
496	0.274	10.874	11.148	8.970	221.143	230.113	29.516	64.141
497	0.280	10.855	11.135	9.162	220.758	229.920	28.621	62.588
498	0.286	10.836	11.122	9.354	220.372	229.726	28.533	62.805
499	0.292	10.817	11.109	9.540	219.996	229.536	30.312	65.814
500	0.298	10.798	11.096	9.738	219.601	229.338	31.042	67.746
501	0.304	10.778	11.082	9.941	219.193	229.134	30.651	67.079
502	0.310	10.759	11.068	10.136	218.801	228.937	31.156	67.476
503	0.316	10.739	11.055	10.335	218.405	228.740	32.698	70.280
504	0.323	10.718	11.040	10.553	217.973	228.526	32.800	70.368
505	0.329	10.698	11.027	10.757	217.569	228.326	30.795	66.776
506	0.335	10.678	11.013	10.965	217.157	228.121	31.733	67.439
507	0.342	10.656	10.998	11.187	216.721	227.909	32.255	69.091
508	0.348	10.636	10.984	11.403	216.297	227.700	30.647	65.154
509	0.355	10.616	10.971	11.604	215.905	227.509	30.423	62.752
510	0.361	10.597	10.958	11.815	215.506	227.321	30.588	63.499
511	0.367	10.577	10.945	12.021	215.113	227.134	29.677	60.921
512	0.374	10.558	10.932	12.225	214.728	226.953	32.281	65.638
513	0.381	10.537	10.918	12.453	214.302	226.755	33.308	67.496
514	0.387	10.517	10.905	12.675	213.889	226.564	32.592	65.457
515	0.394	10.498	10.892	12.888	213.496	226.384	34.579	69.514
516	0.401	10.477	10.878	13.121	213.065	226.185	35.125	69.791
517	0.408	10.455	10.863	13.359	212.628	225.987	35.226	70.198
518	0.414	10.438	10.852	13.555	212.269	225.825	37.230	75.224
519	0.422	10.416	10.837	13.793	211.828	225.621	36.216	71.775
520	0.428	10.396	10.824	14.017	211.420	225.437	36.776	71.919
521	0.436	10.374	10.810	14.265	210.973	225.238	36.838	72.369
522	0.444	10.351	10.795	14.518	210.516	225.035	35.909	70.448
523	0.451	10.329	10.780	14.772	210.061	224.832	37.676	72.853
524	0.459	10.307	10.766	15.022	209.616	224.639	37.659	71.886
525	0.467	10.284	10.751	15.292	209.143	224.435	36.756	70.308
526	0.475	10.261	10.736	15.554	208.682	224.236	38.079	71.825
527	0.483	10.239	10.722	15.818	208.224	224.042	38.884	73.579
528	0.491	10.218	10.709	16.054	207.813	223.868	39.712	74.665
529	0.499	10.195	10.694	16.331	207.335	223.666	39.380	73.905
530	0.508	10.171	10.678	16.618	206.840	223.457	39.702	74.095
531	0.516	10.147	10.663	16.897	206.360	223.257	39.486	73.692
532	0.525	10.122	10.648	17.191	205.857	223.048	39.997	73.062
533	0.534	10.098	10.632	17.484	205.365	222.849	40.401	73.909
534	0.542	10.076	10.619	17.749	204.919	222.668	40.644	73.986
535	0.551	10.053	10.604	18.035	204.441	222.475	41.847	75.755
536	0.560	10.028	10.588	18.334	203.942	222.276	40.862	73.891
537	0.570	10.003	10.573	18.640	203.433	222.073	41.868	75.907
538	0.579	9.979	10.558	18.930	202.949	221.879	43.223	77.876
539	0.588	9.953	10.542	19.246	202.426	221.672	43.281	77.185
540	0.598	9.929	10.526	19.556	201.918	221.474	43.895	78.258
541	0.607	9.904	10.511	19.859	201.421	221.280	44.748	78.891
542	0.616	9.880	10.496	20.157	200.938	221.095	45.846	81.975
543	0.626	9.853	10.480	20.490	200.391	220.881	47.120	83.336
544	0.637	9.826	10.463	20.828	199.842	220.670	47.268	82.318
545	0.647	9.799	10.446	21.179	199.278	220.457	46.087	80.901
546	0.658	9.772	10.430	21.516	198.736	220.252	46.843	80.509
547	0.668	9.746	10.414	21.853	198.202	220.055	46.944	80.616
548	0.678	9.719	10.397	22.197	197.660	219.856	47.520	82.190
549	0.689	9.693	10.381	22.535	197.122	219.656	48.774	83.384
550	0.700	9.665	10.365	22.896	196.555	219.450	49.198	84.261
551	0.711	9.637	10.348	23.255	195.989	219.244	50.096	85.188
552	0.722	9.609	10.331	23.622	195.415	219.038	50.089	84.940
553	0.733	9.580	10.313	23.998	194.829	218.827	51.195	87.058
554	0.745	9.551	10.296	24.371	194.246	218.617	49.637	83.263
555	0.756	9.523	10.279	24.742	193.674	218.416	49.533	83.104
556	0.768	9.495	10.262	25.115	193.099	218.213	49.416	82.657
557	0.779	9.467	10.246	25.483	192.533	218.016	49.701	83.355
558	0.790	9.440	10.230	25.843	191.978	217.821	51.483	86.386
559	0.801	9.411	10.212	26.224	191.389	217.613	51.627	84.672
560	0.813	9.384	10.196	26.588	190.841	217.429	52.230	86.949
561	0.824	9.356	10.180	26.962	190.268	217.230	52.569	87.921
562	0.836	9.325	10.162	27.363	189.653	217.015	51.352	84.678
563	0.848	9.298	10.145	27.735	189.088	216.823	51.817	84.953
564	0.860	9.269	10.128	28.125	188.500	216.625	53.472	87.884
565	0.872	9.239	10.111	28.522	187.898	216.420	53.330	88.335
566	0.884	9.209	10.093	28.922	187.289	216.211	56.298	92.769
567	0.896	9.180	10.076	29.320	186.685	216.006	56.777	92.029
568	0.909	9.148	10.057	29.752	186.043	215.794	56.837	91.720
569	0.922	9.117	10.039	30.180	185.407	215.587	55.911	90.231
570	0.935	9.087	10.022	30.591	184.797	215.388	54.858	89.401
571	0.947	9.057	10.004	30.994	184.194	215.188	56.318	91.737
572	0.960	9.027	9.987	31.396	183.591	214.988	56.193	90.581
573	0.972	8.996	9.969	31.820	182.963	214.783	57.835	94.074
574	0.986	8.964	9.950	32.260	182.305	214.565	60.139	96.333
575	1.000	8.931	9.931	32.716	181.634	214.350	59.116	94.211
576	1.013	8.900	9.913	33.154	180.992	214.146	58.623	93.328
577	1.026	8.868	9.895	33.586	180.359	213.945	57.829	91.956
578	1.040	8.837	9.877	34.026	179.715	213.741	54.964	86.989
579	1.052	8.808	9.860	34.430	179.128	213.558	56.047	88.295
580	1.065	8.778	9.843	34.847	178.522	213.370	56.497	89.546
581	1.078	8.747	9.825	35.280	177.893	213.173	58.229	92.152
582	1.092	8.715	9.807	35.726	177.244	212.969	60.082	94.380
583	1.106	8.682	9.788	36.193	176.567	212.761	59.353	93.081
584	1.120	8.649	9.769	36.663	175.890	212.553	59.545	93.046
585	1.135	8.616	9.750	37.132	175.216	212.348	58.413	90.780
586	1.149	8.583	9.732	37.590	174.563	212.152	57.892	89.751
587	1.162	8.552	9.715	38.034	173.930	211.964	58.390	90.566
588	1.176	8.520	9.697	38.493	173.276	211.770	59.548	92.491
589	1.190	8.488	9.678	38.951	172.621	211.573	60.426	94.480
590	1.203	8.459	9.662	39.355	172.041	211.396	61.886	95.886
591	1.216	8.429	9.645	39.793	171.416	211.209	57.580	88.429
592	1.230	8.398	9.628	40.232	170.797	211.028	58.002	89.166
593	1.243	8.368	9.611	40.664	170.185	210.849	59.017	90.649
594	1.256	8.337	9.594	41.112	169.553	210.665	58.268	89.631
595	1.270	8.307	9.576	41.552	168.931	210.483	57.839	88.334
596	1.283	8.277	9.560	41.986	168.322	210.308	57.025	86.892
597	1.297	8.246	9.543	42.428	167.704	210.131	56.865	86.529
598	1.310	8.216	9.526	42.869	167.087	209.955	57.668	87.247
599	1.324	8.186	9.509	43.309	166.473	209.783	58.581	88.913
600	1.337	8.155	9.492	43.759	165.846	209.605	59.160	89.274
601	1.351	8.123	9.475	44.220	165.206	209.426	59.748	89.958
602	1.365	8.092	9.458	44.679	164.570	209.249	59.256	89.204
603	1.379	8.061	9.441	45.129	163.947	209.076	58.655	88.286
604	1.393	8.030	9.424	45.585	163.315	208.901	59.322	89.382
605	1.407	7.998	9.406	46.054	162.666	208.720	59.501	89.695
606	1.422	7.966	9.388	46.525	162.013	208.539	59.692	89.844
607	1.436	7.934	9.371	46.999	161.358	208.357	58.280	87.659
608	1.450	7.903	9.353	47.462	160.718	208.180	57.002	85.787
609	1.464	7.872	9.336	47.916	160.090	208.006	55.897	83.869
610	1.478	7.842	9.320	48.358	159.479	207.838	54.792	82.447
611	1.491	7.812	9.304	48.789	158.884	207.673	55.726	83.553
612	1.504	7.783	9.287	49.228	158.279	207.507	58.053	87.052
613	1.519	7.751	9.270	49.693	157.637	207.330	60.672	91.530
614	1.533	7.718	9.252	50.173	156.972	207.145	62.377	94.026
615	1.548	7.686	9.234	50.651	156.308	206.960	61.311	92.003
616	1.563	7.653	9.216	51.140	155.632	206.773	59.381	89.097
617	1.577	7.621	9.198	51.602	154.996	206.598	57.209	85.497
618	1.590	7.592	9.182	52.040	154.395	206.435	55.005	81.956
619	1.604	7.562	9.166	52.479	153.795	206.273	53.735	80.221
620	1.617	7.533	9.150	52.911	153.201	206.112	53.354	79.329
621	1.630	7.504	9.134	53.341	152.613	205.954	55.503	82.702
622	1.644	7.474	9.118	53.792	151.995	205.787	59.364	88.521
623	1.658	7.442	9.101	54.257	151.356	205.614	61.908	92.414
624	1.673	7.410	9.083	54.739	150.695	205.434	62.221	92.870
625	1.688	7.377	9.065	55.225	150.029	205.254	60.956	90.815
626	1.702	7.345	9.047	55.697	149.382	205.079	58.598	86.930
627	1.716	7.315	9.031	56.153	148.761	204.914	57.640	85.274
628	1.730	7.284	9.014	56.612	148.136	204.748	57.064	84.242
629	1.743	7.255	8.999	57.042	147.552	204.593	57.393	84.885
630	1.757	7.225	8.982	57.494	146.938	204.432	57.925	85.167
631	1.771	7.195	8.966	57.943	146.331	204.274	58.261	85.507
632	1.785	7.165	8.950	58.402	145.711	204.113	59.062	86.543
633	1.799	7.135	8.934	58.850	145.106	203.956	59.361	86.778
634	1.813	7.103	8.916	59.331	144.460	203.791	59.788	87.657
635	1.828	7.072	8.899	59.808	143.816	203.624	60.186	88.128
636	1.843	7.039	8.882	60.298	143.158	203.455	60.070	88.175
637	1.857	7.008	8.865	60.775	142.513	203.288	60.177	87.661
638	1.872	6.975	8.847	61.269	141.851	203.120	59.884	86.657
639	1.888	6.942	8.830	61.766	141.191	202.957	59.295	85.596
640	1.903	6.911	8.813	62.254	140.542	202.796	58.986	85.338
641	1.917	6.879	8.796	62.734	139.904	202.638	58.956	85.295
642	1.932	6.848	8.780	63.213	139.266	202.479	59.819	86.695
643	1.947	6.816	8.763	63.701	138.616	202.317	60.222	86.884
644	1.962	6.784	8.746	64.197	137.958	202.155	60.791	87.534
645	1.977	6.751	8.728	64.698	137.295	201.993	60.659	87.064
646	1.993	6.718	8.711	65.202	136.629	201.831	59.413	85.291
647	2.007	6.687	8.694	65.682	135.995	201.677	59.040	84.733
648	2.022	6.656	8.678	66.155	135.370	201.525	58.330	83.618
649	2.036	6.626	8.662	66.621	134.756	201.377	58.834	83.926
650	2.050	6.597	8.647	67.076	134.159	201.235	59.666	85.076
651	2.064	6.567	8.631	67.542	133.548	201.090	60.976	86.916
652	2.080	6.534	8.614	68.050	132.882	200.932	61.626	87.740
653	2.095	6.502	8.597	68.544	132.235	200.779	60.881	86.840
654	2.110	6.470	8.580	69.049	131.572	200.621	60.439	85.893
655	2.125	6.438	8.563	69.543	130.926	200.469	59.754	84.468
656	2.140	6.408	8.548	70.010	130.320	200.330	58.819	83.050
657	2.152	6.382	8.534	70.413	129.796	200.210	59.675	84.508
658	2.165	6.355	8.520	70.842	129.238	200.080	60.214	85.213
659	2.180	6.324	8.504	71.325	128.609	199.934	60.644	85.746
660	2.195	6.292	8.487	71.817	127.970	199.787	61.719	87.394
661	2.210	6.260	8.470	72.322	127.312	199.634	60.910	86.086
662	2.225	6.228	8.454	72.818	126.668	199.485	60.088	84.761
663	2.240	6.197	8.438	73.303	126.037	199.341	59.714	84.358
664	2.255	6.167	8.422	73.787	125.409	199.196	59.039	83.334
665	2.270	6.136	8.405	74.269	124.783	199.052	59.054	82.907
666	2.285	6.104	8.389	74.764	124.144	198.908	60.038	84.204
667	2.300	6.072	8.373	75.268	123.495	198.763	61.006	85.992
668	2.316	6.040	8.356	75.777	122.835	198.612	61.450	86.084
669	2.332	6.007	8.339	76.290	122.174	198.464	61.582	86.260
670	2.348	5.974	8.322	76.814	121.500	198.313	61.247	85.727
671	2.363	5.942	8.305	77.331	120.834	198.164	59.610	83.328
672	2.379	5.910	8.289	77.831	120.191	198.022	59.157	82.672
673	2.394	5.879	8.272	78.324	119.557	197.881	59.666	83.474
674	2.409	5.847	8.256	78.827	118.911	197.738	59.238	82.525
675	2.424	5.816	8.240	79.322	118.276	197.599	60.461	84.240
676	2.440	5.784	8.224	79.825	117.633	197.457	61.137	84.864
677	2.455	5.752	8.207	80.342	116.973	197.315	60.327	83.646
678	2.471	5.720	8.191	80.848	116.327	197.176	60.093	83.256
679	2.486	5.688	8.175	81.353	115.683	197.037	59.288	82.102
680	2.501	5.657	8.159	81.849	115.053	196.902	58.695	81.005
681	2.517	5.626	8.143	82.344	114.425	196.769	59.409	82.203
682	2.532	5.595	8.127	82.842	113.791	196.633	59.961	82.728
683	2.547	5.564	8.111	83.350	113.147	196.497	60.052	82.682
684	2.563	5.532	8.095	83.850	112.514	196.363	60.070	82.576
685	2.578	5.501	8.079	84.348	111.884	196.232	59.942	81.883
686	2.593	5.471	8.064	84.849	111.255	196.104	58.592	80.083
687	2.608	5.441	8.049	85.328	110.652	195.980	57.742	78.654
688	2.618	5.420	8.038	85.669	110.224	195.893	58.929	80.671
689	2.630	5.395	8.025	86.073	109.715	195.787	58.590	79.833
690	2.643	5.370	8.013	86.478	109.206	195.684	58.786	80.411
691	2.656	5.344	7.999	86.902	108.672	195.574	60.190	81.900
692	2.670	5.316	7.985	87.358	108.103	195.461	59.930	81.214
693	2.684	5.287	7.971	87.824	107.523	195.347	59.694	80.539
694	2.698	5.259	7.957	88.284	106.951	195.236	59.370	80.475
695	2.712	5.231	7.943	88.739	106.384	195.123	59.808	80.815
696	2.726	5.202	7.929	89.205	105.804	195.009	60.255	81.148
697	2.741	5.174	7.914	89.676	105.220	194.897	60.849	82.358
698	2.756	5.143	7.899	90.181	104.591	194.772	61.380	82.169
699	2.771	5.112	7.884	90.684	103.973	194.657	60.821	81.227
700	2.786	5.083	7.869	91.170	103.376	194.546	60.395	80.527
701	2.801	5.054	7.855	91.648	102.789	194.437	60.458	80.607
702	2.815	5.026	7.841	92.124	102.205	194.329	60.278	80.703
703	2.830	4.997	7.827	92.599	101.620	194.220	60.892	81.751
704	2.845	4.967	7.812	93.084	101.021	194.105	62.144	83.504
705	2.860	4.936	7.797	93.592	100.393	193.985	61.851	82.638
706	2.876	4.906	7.781	94.103	99.765	193.868	60.687	80.787
707	2.891	4.876	7.767	94.601	99.156	193.757	60.670	80.736
708	2.906	4.846	7.752	95.100	98.545	193.646	60.609	80.784
709	2.921	4.816	7.737	95.595	97.939	193.534	59.943	79.175
710	2.937	4.786	7.723	96.089	97.339	193.428	59.751	79.212
711	2.952	4.756	7.708	96.587	96.733	193.320	62.706	83.503
712	2.968	4.725	7.693	97.105	96.098	193.203	62.764	83.214
713	2.984	4.694	7.678	97.625	95.464	193.089	61.894	81.897
714	2.999	4.664	7.663	98.129	94.851	192.979	61.130	80.709
715	3.014	4.634	7.648	98.631	94.240	192.872	60.758	80.153
716	3.029	4.605	7.634	99.115	93.653	192.768	62.115	82.064
717	3.044	4.575	7.620	99.614	93.046	192.660	63.319	83.496
718	3.058	4.548	7.606	100.062	92.503	192.565	63.965	84.136
719	3.071	4.523	7.594	100.483	91.994	192.477	64.469	84.692
720	3.083	4.501	7.583	100.865	91.533	192.398	63.744	83.459
721	3.095	4.477	7.572	101.268	91.047	192.315	63.459	83.008
722	3.108	4.451	7.559	101.710	90.515	192.225	62.843	82.290
723	3.124	4.421	7.545	102.211	89.912	192.123	63.009	81.882
724	3.138	4.394	7.532	102.673	89.359	192.032	64.331	83.807
725	3.151	4.368	7.519	103.112	88.834	191.946	65.751	85.147
726	3.165	4.342	7.507	103.553	88.309	191.862	66.219	85.440
727	3.179	4.315	7.494	104.015	87.760	191.776	66.104	85.645
728	3.193	4.288	7.481	104.481	87.207	191.687	65.227	84.165
729	3.207	4.262	7.469	104.921	86.684	191.606	64.770	83.507
