Wavelength (nm) 	 Efficiency Div Wav 1 (%) 	 Efficiency Div Wav 2 (%) 	 Efficiency Div Wav total (%) 	 Jsc Div Wav 1 (A m^-2) 	 Jsc Div Wav 2 (A m^-2) 	 Jsc Div Wav total (A m^-2) 	 EQE Curve 1 (%) 	 EQE Curve 2 (%) 	Jsc 1 correction factor: 0.12112841760658835	Jsc 2 correction factor: 0.12747424180101746
400	0.000	7.310	7.310	0.000	254.069	254.069	10.421	14.124
401	0.001	7.308	7.309	0.034	254.020	254.054	11.198	15.055
402	0.002	7.307	7.309	0.073	253.966	254.038	11.252	15.145
403	0.003	7.305	7.308	0.113	253.908	254.021	11.118	14.847
404	0.005	7.303	7.308	0.151	253.853	254.005	10.934	14.425
405	0.006	7.302	7.308	0.190	253.800	253.990	11.031	14.494
406	0.007	7.300	7.307	0.229	253.746	253.975	11.121	14.630
407	0.008	7.299	7.307	0.266	253.694	253.961	11.520	15.044
408	0.009	7.297	7.307	0.305	253.641	253.946	11.689	15.178
409	0.011	7.296	7.306	0.346	253.585	253.931	11.936	15.343
410	0.012	7.294	7.306	0.391	253.523	253.915	11.984	15.515
411	0.013	7.292	7.305	0.430	253.470	253.900	12.091	15.474
412	0.014	7.291	7.305	0.474	253.410	253.883	12.294	15.576
413	0.016	7.289	7.305	0.522	253.346	253.868	12.286	15.643
414	0.017	7.287	7.304	0.568	253.285	253.853	12.373	15.736
415	0.019	7.285	7.304	0.614	253.224	253.838	12.543	15.553
416	0.020	7.283	7.304	0.663	253.160	253.823	12.745	15.812
417	0.022	7.281	7.303	0.713	253.094	253.807	13.098	16.477
418	0.023	7.280	7.303	0.764	253.026	253.790	12.912	16.057
419	0.025	7.278	7.303	0.813	252.962	253.775	13.023	16.111
420	0.026	7.276	7.302	0.864	252.896	253.760	12.797	15.788
421	0.028	7.274	7.302	0.910	252.836	253.746	12.873	15.699
422	0.029	7.272	7.302	0.963	252.767	253.730	13.136	15.702
423	0.031	7.270	7.301	1.016	252.700	253.716	13.238	16.068
424	0.033	7.268	7.301	1.070	252.632	253.702	13.215	16.108
425	0.034	7.266	7.301	1.122	252.565	253.686	13.106	15.623
426	0.036	7.264	7.300	1.176	252.497	253.673	13.488	15.672
427	0.038	7.262	7.300	1.231	252.431	253.662	13.509	16.151
428	0.039	7.261	7.300	1.284	252.365	253.649	13.529	16.011
429	0.041	7.259	7.299	1.337	252.298	253.636	13.177	15.799
430	0.042	7.257	7.299	1.386	252.237	253.623	13.420	15.785
431	0.044	7.255	7.299	1.426	252.189	253.614	14.214	16.189
432	0.045	7.254	7.299	1.464	252.143	253.607	14.112	16.301
433	0.047	7.252	7.299	1.527	252.066	253.594	14.148	16.388
434	0.048	7.250	7.298	1.587	251.994	253.580	14.036	15.962
435	0.050	7.248	7.298	1.641	251.929	253.570	14.361	16.546
436	0.052	7.246	7.298	1.703	251.853	253.556	14.384	16.434
437	0.054	7.243	7.298	1.771	251.772	253.543	14.156	16.161
438	0.056	7.241	7.297	1.839	251.690	253.529	14.590	16.410
439	0.058	7.239	7.297	1.901	251.616	253.517	14.996	17.112
440	0.060	7.237	7.297	1.962	251.542	253.505	15.210	17.162
441	0.062	7.234	7.297	2.034	251.457	253.491	14.774	16.983
442	0.064	7.232	7.296	2.103	251.373	253.476	15.075	17.170
443	0.067	7.229	7.296	2.178	251.282	253.460	15.671	17.775
444	0.069	7.227	7.296	2.258	251.187	253.445	15.582	17.663
445	0.071	7.224	7.295	2.335	251.094	253.429	15.434	17.732
446	0.074	7.221	7.295	2.415	250.997	253.412	15.747	18.399
447	0.076	7.219	7.295	2.489	250.906	253.395	15.879	18.322
448	0.079	7.216	7.294	2.574	250.803	253.377	16.291	18.940
449	0.081	7.212	7.294	2.662	250.695	253.357	16.568	18.766
450	0.084	7.209	7.293	2.752	250.588	253.340	16.868	19.271
451	0.087	7.206	7.293	2.848	250.473	253.321	16.499	18.446
452	0.090	7.203	7.293	2.945	250.358	253.303	16.358	18.078
453	0.093	7.200	7.293	3.037	250.251	253.288	17.054	18.444
454	0.096	7.197	7.292	3.126	250.149	253.275	17.666	19.112
455	0.099	7.194	7.292	3.226	250.036	253.261	18.334	20.042
456	0.102	7.190	7.292	3.329	249.917	253.246	18.782	20.301
457	0.105	7.187	7.292	3.438	249.792	253.230	18.927	20.463
458	0.108	7.183	7.291	3.549	249.665	253.214	18.843	20.584
459	0.112	7.179	7.291	3.658	249.540	253.198	19.011	20.445
460	0.115	7.176	7.291	3.768	249.415	253.183	19.269	20.682
461	0.119	7.172	7.291	3.879	249.290	253.168	19.750	21.425
462	0.122	7.168	7.290	3.997	249.155	253.152	19.645	21.399
463	0.126	7.164	7.290	4.116	249.018	253.134	19.985	21.380
464	0.130	7.160	7.290	4.238	248.881	253.119	20.150	21.260
465	0.133	7.156	7.290	4.358	248.748	253.106	19.956	21.364
466	0.137	7.153	7.289	4.476	248.617	253.093	20.273	21.183
467	0.141	7.149	7.289	4.598	248.483	253.081	20.655	21.459
468	0.144	7.145	7.289	4.717	248.353	253.070	20.751	21.711
469	0.148	7.141	7.289	4.842	248.215	253.057	21.019	21.895
470	0.152	7.137	7.289	4.969	248.076	253.045	21.719	22.971
471	0.156	7.133	7.289	5.096	247.935	253.031	21.411	22.531
472	0.160	7.129	7.289	5.224	247.793	253.018	20.650	21.031
473	0.164	7.125	7.289	5.355	247.653	253.008	22.252	22.875
474	0.168	7.121	7.289	5.490	247.508	252.997	23.050	23.900
475	0.172	7.116	7.288	5.631	247.352	252.984	22.166	22.638
476	0.176	7.112	7.288	5.773	247.199	252.972	22.259	22.541
477	0.181	7.108	7.288	5.911	247.053	252.964	23.121	23.739
478	0.185	7.103	7.288	6.055	246.897	252.952	22.959	23.781
479	0.190	7.099	7.288	6.203	246.735	252.938	23.152	23.696
480	0.194	7.094	7.288	6.351	246.577	252.928	23.004	23.180
481	0.199	7.089	7.288	6.500	246.419	252.919	22.464	22.580
482	0.203	7.085	7.288	6.645	246.265	252.910	23.210	23.328
483	0.208	7.080	7.288	6.797	246.104	252.901	23.939	23.931
484	0.212	7.076	7.288	6.952	245.941	252.893	23.911	24.346
485	0.217	7.071	7.288	7.104	245.778	252.882	24.354	24.505
486	0.222	7.066	7.288	7.260	245.614	252.874	24.565	24.638
487	0.226	7.062	7.288	7.388	245.480	252.867	25.264	24.976
488	0.230	7.058	7.288	7.534	245.327	252.861	26.276	26.674
489	0.235	7.053	7.288	7.701	245.148	252.850	26.960	27.885
490	0.240	7.048	7.288	7.862	244.974	252.836	27.247	28.083
491	0.246	7.042	7.288	8.045	244.776	252.821	27.751	28.322
492	0.251	7.037	7.288	8.223	244.585	252.808	28.064	28.380
493	0.257	7.031	7.288	8.397	244.401	252.798	28.371	29.602
494	0.262	7.026	7.288	8.584	244.196	252.780	28.488	29.844
495	0.268	7.020	7.288	8.768	243.993	252.762	29.319	29.850
496	0.274	7.013	7.288	8.970	243.778	252.747	29.516	30.152
497	0.280	7.007	7.288	9.162	243.570	252.732	28.621	28.771
498	0.286	7.002	7.288	9.354	243.367	252.721	28.533	29.297
499	0.292	6.996	7.287	9.540	243.166	252.706	30.312	30.999
500	0.298	6.990	7.287	9.738	242.953	252.691	31.042	32.230
501	0.304	6.983	7.287	9.941	242.731	252.672	30.651	31.734
502	0.310	6.977	7.287	10.136	242.518	252.654	31.156	32.613
503	0.316	6.971	7.287	10.335	242.299	252.634	32.698	33.950
504	0.323	6.964	7.287	10.553	242.061	252.614	32.800	34.705
505	0.329	6.958	7.286	10.757	241.833	252.590	30.795	31.746
506	0.335	6.951	7.286	10.965	241.608	252.573	31.733	33.066
507	0.342	6.944	7.286	11.187	241.364	252.551	32.255	34.531
508	0.348	6.937	7.285	11.403	241.120	252.523	30.647	32.139
509	0.355	6.931	7.285	11.604	240.898	252.502	30.423	30.570
510	0.361	6.924	7.285	11.815	240.676	252.491	30.588	31.070
511	0.367	6.918	7.285	12.021	240.456	252.477	29.677	30.260
512	0.374	6.912	7.285	12.225	240.237	252.462	32.281	32.365
513	0.381	6.905	7.285	12.453	239.997	252.450	33.308	33.566
514	0.387	6.898	7.285	12.675	239.761	252.436	32.592	32.551
515	0.394	6.891	7.285	12.888	239.538	252.426	34.579	34.451
516	0.401	6.884	7.285	13.121	239.293	252.414	35.125	34.793
517	0.408	6.877	7.286	13.359	239.045	252.404	35.226	35.271
518	0.414	6.871	7.286	13.555	238.838	252.394	37.230	38.280
519	0.422	6.864	7.286	13.793	238.582	252.375	36.216	36.939
520	0.428	6.857	7.285	14.017	238.341	252.358	36.776	37.002
521	0.436	6.850	7.285	14.265	238.079	252.344	36.838	37.522
522	0.444	6.842	7.285	14.518	237.807	252.325	35.909	37.553
523	0.451	6.834	7.285	14.772	237.529	252.301	37.676	38.657
524	0.459	6.826	7.285	15.022	237.259	252.281	37.659	38.141
525	0.467	6.818	7.285	15.292	236.971	252.263	36.756	36.664
526	0.475	6.810	7.285	15.554	236.695	252.250	38.079	37.880
527	0.483	6.802	7.285	15.818	236.419	252.237	38.884	39.017
528	0.491	6.795	7.285	16.054	236.169	252.223	39.712	40.270
529	0.499	6.786	7.285	16.331	235.875	252.205	39.380	39.745
530	0.508	6.777	7.285	16.618	235.570	252.187	39.702	40.614
531	0.516	6.769	7.285	16.897	235.269	252.166	39.486	40.737
532	0.525	6.760	7.285	17.191	234.952	252.142	39.997	40.866
533	0.534	6.750	7.285	17.484	234.637	252.120	40.401	41.535
534	0.542	6.742	7.285	17.749	234.350	252.099	40.644	41.383
535	0.551	6.733	7.285	18.035	234.043	252.078	41.847	42.371
536	0.560	6.724	7.285	18.334	233.724	252.058	40.862	41.122
537	0.570	6.715	7.285	18.640	233.400	252.041	41.868	42.528
538	0.579	6.706	7.285	18.930	233.090	252.020	43.223	44.236
539	0.588	6.696	7.284	19.246	232.750	251.996	43.281	45.109
540	0.598	6.686	7.284	19.556	232.410	251.966	43.895	45.826
541	0.607	6.677	7.284	19.859	232.077	251.936	44.748	47.303
542	0.616	6.667	7.283	20.157	231.746	251.903	45.846	50.286
543	0.626	6.656	7.282	20.490	231.362	251.852	47.120	49.921
544	0.637	6.645	7.282	20.828	230.986	251.814	47.268	49.630
545	0.647	6.634	7.282	21.179	230.597	251.776	46.087	47.868
546	0.658	6.624	7.281	21.516	230.230	251.746	46.843	48.078
547	0.668	6.613	7.281	21.853	229.865	251.718	46.944	49.392
548	0.678	6.602	7.281	22.197	229.486	251.682	47.520	50.047
549	0.689	6.591	7.280	22.535	229.111	251.645	48.774	51.606
550	0.700	6.580	7.280	22.896	228.709	251.605	49.198	52.627
551	0.711	6.568	7.279	23.255	228.305	251.561	50.096	53.051
552	0.722	6.557	7.278	23.622	227.896	251.518	50.089	52.534
553	0.733	6.545	7.278	23.998	227.482	251.480	51.195	53.692
554	0.745	6.533	7.278	24.371	227.070	251.441	49.637	51.448
555	0.756	6.521	7.277	24.742	226.666	251.407	49.533	51.588
556	0.768	6.509	7.277	25.115	226.257	251.371	49.416	51.555
557	0.779	6.498	7.277	25.483	225.852	251.335	49.701	52.281
558	0.790	6.486	7.276	25.843	225.455	251.298	51.483	54.591
559	0.801	6.474	7.276	26.224	225.029	251.253	51.627	54.313
560	0.813	6.462	7.275	26.588	224.626	251.214	52.230	55.581
561	0.824	6.450	7.274	26.962	224.207	251.169	52.569	56.515
562	0.836	6.437	7.274	27.363	223.754	251.117	51.352	54.117
563	0.848	6.426	7.273	27.735	223.341	251.076	51.817	54.065
564	0.860	6.413	7.273	28.125	222.913	251.038	53.472	56.744
565	0.872	6.400	7.272	28.522	222.469	250.991	53.330	57.624
566	0.884	6.387	7.271	28.922	222.014	250.936	56.298	61.723
567	0.896	6.374	7.270	29.320	221.554	250.874	56.777	62.429
568	0.909	6.360	7.269	29.752	221.056	250.807	56.837	60.585
569	0.922	6.346	7.268	30.180	220.575	250.755	55.911	60.450
570	0.935	6.333	7.267	30.591	220.108	250.699	54.858	59.436
571	0.947	6.319	7.266	30.994	219.648	250.643	56.318	61.335
572	0.960	6.306	7.266	31.396	219.187	250.583	56.193	61.261
573	0.972	6.292	7.264	31.820	218.701	250.522	57.835	63.776
574	0.986	6.277	7.263	32.260	218.190	250.450	60.139	66.602
575	1.000	6.262	7.262	32.716	217.660	250.375	59.116	64.475
576	1.013	6.248	7.261	33.154	217.156	250.310	58.623	63.252
577	1.026	6.233	7.260	33.586	216.665	250.252	57.829	62.288
578	1.040	6.219	7.259	34.026	216.167	250.193	54.964	59.587
579	1.052	6.206	7.258	34.430	215.707	250.136	56.047	60.601
580	1.065	6.192	7.257	34.847	215.230	250.077	56.497	61.627
581	1.078	6.178	7.256	35.280	214.734	250.014	58.229	63.861
582	1.092	6.163	7.255	35.726	214.219	249.945	60.082	66.548
583	1.106	6.147	7.253	36.193	213.674	249.867	59.353	64.873
584	1.120	6.132	7.252	36.663	213.133	249.796	59.545	64.427
585	1.135	6.116	7.251	37.132	212.599	249.731	58.413	62.498
586	1.149	6.102	7.250	37.590	212.084	249.674	57.892	62.398
587	1.162	6.087	7.250	38.034	211.580	249.615	58.390	63.442
588	1.176	6.072	7.248	38.493	211.057	249.550	59.548	64.707
589	1.190	6.057	7.247	38.951	210.533	249.484	60.426	65.738
590	1.203	6.044	7.246	39.355	210.071	249.426	61.886	67.348
591	1.216	6.029	7.245	39.793	209.569	249.362	57.580	62.479
592	1.230	6.015	7.244	40.232	209.068	249.300	58.002	63.422
593	1.243	6.001	7.243	40.664	208.570	249.234	59.017	64.304
594	1.256	5.986	7.242	41.112	208.056	249.168	58.268	63.674
595	1.270	5.971	7.241	41.552	207.550	249.102	57.839	63.243
596	1.283	5.957	7.240	41.986	207.051	249.037	57.025	62.510
597	1.297	5.942	7.239	42.428	206.541	248.969	56.865	62.285
598	1.310	5.928	7.238	42.869	206.033	248.901	57.668	63.028
599	1.324	5.913	7.237	43.309	205.525	248.835	58.581	63.920
600	1.337	5.898	7.235	43.759	205.010	248.769	59.160	64.854
601	1.351	5.883	7.234	44.220	204.479	248.699	59.748	65.314
602	1.365	5.868	7.233	44.679	203.950	248.629	59.256	65.014
603	1.379	5.853	7.232	45.129	203.431	248.560	58.655	64.343
604	1.393	5.838	7.231	45.585	202.905	248.490	59.322	65.011
605	1.407	5.822	7.229	46.054	202.364	248.418	59.501	64.845
606	1.422	5.806	7.228	46.525	201.824	248.349	59.692	65.306
607	1.436	5.791	7.227	46.999	201.278	248.277	58.280	63.625
608	1.450	5.775	7.226	47.462	200.746	248.208	57.002	62.547
609	1.464	5.760	7.225	47.916	200.223	248.138	55.897	61.387
610	1.478	5.746	7.224	48.358	199.711	248.069	54.792	60.128
611	1.491	5.731	7.222	48.789	199.214	248.004	55.726	61.151
612	1.504	5.717	7.221	49.228	198.707	247.935	58.053	63.724
613	1.519	5.701	7.220	49.693	198.170	247.863	60.672	66.427
614	1.533	5.685	7.219	50.173	197.618	247.791	62.377	68.504
615	1.548	5.670	7.218	50.651	197.065	247.716	61.311	67.723
616	1.563	5.653	7.216	51.140	196.495	247.636	59.381	65.781
617	1.577	5.638	7.215	51.602	195.957	247.559	57.209	62.908
618	1.590	5.623	7.214	52.040	195.450	247.490	55.005	60.572
619	1.604	5.608	7.212	52.479	194.943	247.421	53.735	59.152
620	1.617	5.594	7.211	52.911	194.442	247.353	53.354	58.539
621	1.630	5.580	7.210	53.341	193.946	247.287	55.503	60.873
622	1.644	5.565	7.209	53.792	193.424	247.216	59.364	65.201
623	1.658	5.549	7.207	54.257	192.886	247.143	61.908	68.041
624	1.673	5.533	7.206	54.739	192.328	247.067	62.221	68.770
625	1.688	5.517	7.205	55.225	191.763	246.988	60.956	67.135
626	1.702	5.501	7.203	55.697	191.215	246.912	58.598	64.616
627	1.716	5.486	7.202	56.153	190.687	246.840	57.640	63.501
628	1.730	5.471	7.201	56.612	190.156	246.768	57.064	62.593
629	1.743	5.456	7.200	57.042	189.659	246.701	57.393	63.255
630	1.757	5.441	7.198	57.494	189.135	246.628	57.925	63.758
631	1.771	5.426	7.197	57.943	188.615	246.558	58.261	63.798
632	1.785	5.411	7.196	58.402	188.084	246.486	59.062	64.931
633	1.799	5.396	7.195	58.850	187.566	246.416	59.361	65.126
634	1.813	5.380	7.193	59.331	187.010	246.341	59.788	65.362
635	1.828	5.364	7.192	59.808	186.460	246.269	60.186	65.875
636	1.843	5.348	7.191	60.298	185.897	246.195	60.070	65.940
637	1.857	5.332	7.190	60.775	185.345	246.120	60.177	65.636
638	1.872	5.316	7.189	61.269	184.778	246.047	59.884	65.367
639	1.888	5.300	7.187	61.766	184.208	245.974	59.295	64.610
640	1.903	5.284	7.186	62.254	183.648	245.902	58.986	64.344
641	1.917	5.268	7.185	62.734	183.098	245.831	58.956	64.093
642	1.932	5.252	7.184	63.213	182.548	245.762	59.819	65.224
643	1.947	5.236	7.183	63.701	181.989	245.690	60.222	65.584
644	1.962	5.219	7.181	64.197	181.420	245.617	60.791	66.072
645	1.977	5.203	7.180	64.698	180.846	245.545	60.659	65.770
646	1.993	5.186	7.179	65.202	180.270	245.472	59.413	64.369
647	2.007	5.171	7.178	65.682	179.723	245.405	59.040	63.857
648	2.022	5.155	7.177	66.155	179.184	245.340	58.330	63.085
649	2.036	5.140	7.176	66.621	178.655	245.276	58.834	63.289
650	2.050	5.125	7.175	67.076	178.140	245.216	59.666	64.694
651	2.064	5.110	7.174	67.542	177.609	245.151	60.976	66.066
652	2.080	5.093	7.173	68.050	177.030	245.080	61.626	66.565
653	2.095	5.077	7.172	68.544	176.468	245.012	60.881	65.680
654	2.110	5.060	7.171	69.049	175.894	244.943	60.439	64.915
655	2.125	5.044	7.170	69.543	175.336	244.879	59.754	63.619
656	2.140	5.029	7.169	70.010	174.813	244.823	58.819	62.704
657	2.152	5.016	7.168	70.413	174.361	244.774	59.675	63.896
658	2.165	5.002	7.167	70.842	173.877	244.719	60.214	64.578
659	2.180	4.987	7.167	71.325	173.332	244.657	60.644	65.165
660	2.195	4.971	7.166	71.817	172.776	244.593	61.719	66.348
661	2.210	4.954	7.165	72.322	172.205	244.527	60.910	65.069
662	2.225	4.938	7.164	72.818	171.648	244.465	60.088	64.067
663	2.240	4.923	7.163	73.303	171.102	244.406	59.714	63.474
664	2.255	4.907	7.162	73.787	170.562	244.348	59.039	62.490
665	2.270	4.892	7.161	74.269	170.024	244.293	59.054	62.594
666	2.285	4.876	7.161	74.764	169.472	244.236	60.038	63.947
667	2.300	4.859	7.160	75.268	168.907	244.175	61.006	65.210
668	2.316	4.843	7.159	75.777	168.335	244.112	61.450	65.594
669	2.332	4.826	7.158	76.290	167.759	244.049	61.582	65.690
670	2.348	4.809	7.157	76.814	167.171	243.985	61.247	65.448
671	2.363	4.793	7.156	77.331	166.590	243.921	59.610	63.313
672	2.379	4.777	7.155	77.831	166.030	243.861	59.157	63.018
673	2.394	4.761	7.154	78.324	165.477	243.801	59.666	63.581
674	2.409	4.745	7.154	78.827	164.913	243.740	59.238	63.084
675	2.424	4.729	7.153	79.322	164.359	243.681	60.461	64.440
676	2.440	4.712	7.152	79.825	163.795	243.620	61.137	64.899
677	2.455	4.696	7.151	80.342	163.218	243.560	60.327	63.888
678	2.471	4.680	7.150	80.848	162.653	243.502	60.093	63.616
679	2.486	4.663	7.150	81.353	162.090	243.443	59.288	62.928
680	2.501	4.647	7.149	81.849	161.537	243.386	58.695	62.207
681	2.517	4.632	7.148	82.344	160.985	243.329	59.409	63.301
682	2.532	4.615	7.147	82.842	160.426	243.268	59.961	63.885
683	2.547	4.599	7.146	83.350	159.858	243.207	60.052	63.763
684	2.563	4.583	7.146	83.850	159.298	243.148	60.070	63.738
685	2.578	4.567	7.145	84.348	158.742	243.090	59.942	63.474
686	2.593	4.551	7.144	84.849	158.184	243.033	58.592	62.022
687	2.608	4.536	7.143	85.328	157.650	242.978	57.742	61.020
688	2.618	4.525	7.143	85.669	157.269	242.938	58.929	62.643
689	2.630	4.512	7.142	86.073	156.816	242.889	58.590	61.865
690	2.643	4.499	7.142	86.478	156.365	242.843	58.786	62.630
691	2.656	4.485	7.141	86.902	155.890	242.792	60.190	63.960
692	2.670	4.470	7.140	87.358	155.381	242.739	59.930	63.933
693	2.684	4.455	7.139	87.824	154.858	242.682	59.694	63.420
694	2.698	4.440	7.139	88.284	154.343	242.628	59.370	63.375
695	2.712	4.426	7.138	88.739	153.832	242.571	59.808	63.345
696	2.726	4.411	7.137	89.205	153.312	242.517	60.255	63.742
697	2.741	4.396	7.136	89.676	152.788	242.464	60.849	64.378
698	2.756	4.380	7.136	90.181	152.226	242.407	61.380	64.904
699	2.771	4.363	7.135	90.684	151.668	242.352	60.821	64.160
700	2.786	4.348	7.134	91.170	151.128	242.298	60.395	63.574
701	2.801	4.333	7.134	91.648	150.598	242.246	60.458	63.858
702	2.815	4.317	7.133	92.124	150.069	242.193	60.278	63.619
703	2.830	4.302	7.132	92.599	149.541	242.140	60.892	64.363
704	2.845	4.287	7.132	93.084	149.002	242.086	62.144	65.654
705	2.860	4.270	7.131	93.592	148.436	242.028	61.851	65.156
706	2.876	4.254	7.130	94.103	147.869	241.972	60.687	63.778
707	2.891	4.238	7.129	94.601	147.318	241.919	60.670	63.837
708	2.906	4.222	7.129	95.100	146.766	241.867	60.609	63.913
709	2.921	4.207	7.128	95.595	146.217	241.811	59.943	62.753
710	2.937	4.191	7.128	96.089	145.672	241.761	59.751	62.632
711	2.952	4.175	7.127	96.587	145.124	241.711	62.706	65.658
712	2.968	4.159	7.126	97.105	144.553	241.658	62.764	66.212
713	2.984	4.142	7.126	97.625	143.977	241.602	61.894	65.012
714	2.999	4.126	7.125	98.129	143.420	241.549	61.130	64.278
715	3.014	4.110	7.124	98.631	142.863	241.494	60.758	63.969
716	3.029	4.095	7.124	99.115	142.328	241.442	62.115	65.364
717	3.044	4.079	7.123	99.614	141.774	241.388	63.319	66.235
718	3.058	4.065	7.123	100.062	141.281	241.343	63.965	67.173
719	3.071	4.051	7.122	100.483	140.816	241.299	64.469	67.531
720	3.083	4.039	7.122	100.865	140.395	241.260	63.744	66.496
721	3.095	4.026	7.121	101.268	139.953	241.221	63.459	66.065
722	3.108	4.012	7.121	101.710	139.468	241.179	62.843	65.738
723	3.124	3.997	7.120	102.211	138.916	241.127	63.009	65.187
724	3.138	3.982	7.120	102.673	138.413	241.086	64.331	67.052
725	3.151	3.968	7.120	103.112	137.932	241.044	65.751	68.282
726	3.165	3.954	7.119	103.553	137.450	241.003	66.219	68.426
727	3.179	3.940	7.119	104.015	136.947	240.962	66.104	68.361
728	3.193	3.925	7.118	104.481	136.441	240.921	65.227	67.030
729	3.207	3.912	7.118	104.921	135.964	240.885	64.770	66.294
730	3.220	3.898	7.118	105.362	135.490	240.852	64.744	66.256
731	3.235	3.883	7.118	105.838	134.977	240.816	65.542	67.089
732	3.249	3.869	7.118	106.295	134.485	240.780	66.789	68.598
733	3.264	3.854	7.117	106.797	133.944	240.740	67.071	69.007
734	3.280	3.837	7.117	107.320	133.376	240.696	67.194	69.111
