Wavelength (nm) 	 Efficiency Div Wav 1 (%) 	 Efficiency Div Wav 2 (%) 	 Efficiency Div Wav total (%) 	 Jsc Div Wav 1 (A m^-2) 	 Jsc Div Wav 2 (A m^-2) 	 Jsc Div Wav total (A m^-2) 	 EQE Curve 1 (%) 	 EQE Curve 2 (%) 	Jsc 1 correction factor: 0.12112841760658835	Jsc 2 correction factor: 0.13134985171721028
400	0.000	3.789	3.789	0.000	68.650	68.650	10.421	11.562
401	0.001	3.786	3.787	0.034	68.609	68.643	11.198	12.501
402	0.002	3.784	3.786	0.073	68.563	68.636	11.252	12.457
403	0.003	3.781	3.785	0.113	68.515	68.627	11.118	12.445
404	0.005	3.779	3.783	0.151	68.467	68.619	10.934	12.315
405	0.006	3.776	3.782	0.190	68.420	68.610	11.031	12.395
406	0.007	3.773	3.780	0.229	68.373	68.602	11.121	12.285
407	0.008	3.771	3.779	0.266	68.327	68.593	11.520	12.613
408	0.009	3.768	3.778	0.305	68.281	68.586	11.689	12.719
409	0.011	3.766	3.776	0.346	68.232	68.579	11.936	12.726
410	0.012	3.763	3.775	0.391	68.180	68.571	11.984	12.815
411	0.013	3.760	3.773	0.430	68.135	68.565	12.091	12.862
412	0.014	3.757	3.772	0.474	68.084	68.557	12.294	12.899
413	0.016	3.754	3.770	0.522	68.030	68.552	12.286	12.759
414	0.017	3.752	3.769	0.568	67.977	68.546	12.373	12.997
415	0.019	3.749	3.767	0.614	67.925	68.539	12.543	12.881
416	0.020	3.746	3.766	0.663	67.871	68.534	12.745	13.102
417	0.022	3.743	3.764	0.713	67.815	68.528	13.098	13.272
418	0.023	3.739	3.763	0.764	67.758	68.522	12.912	13.589
419	0.025	3.736	3.761	0.813	67.703	68.516	13.023	13.613
420	0.026	3.733	3.760	0.864	67.645	68.509	12.797	13.375
421	0.028	3.730	3.758	0.910	67.593	68.502	12.873	13.366
422	0.029	3.727	3.756	0.963	67.532	68.495	13.136	13.586
423	0.031	3.724	3.755	1.016	67.472	68.488	13.238	13.738
424	0.033	3.720	3.753	1.070	67.413	68.482	13.215	13.738
425	0.034	3.717	3.751	1.122	67.354	68.475	13.106	13.556
426	0.036	3.714	3.750	1.176	67.293	68.469	13.488	13.906
427	0.038	3.710	3.748	1.231	67.233	68.463	13.509	14.082
428	0.039	3.707	3.746	1.284	67.174	68.458	13.529	14.032
429	0.041	3.704	3.745	1.337	67.113	68.450	13.177	13.719
430	0.042	3.701	3.743	1.386	67.058	68.444	13.420	13.922
431	0.044	3.698	3.742	1.426	67.013	68.439	14.214	14.528
432	0.045	3.696	3.741	1.464	66.971	68.436	14.112	14.560
433	0.047	3.692	3.739	1.527	66.900	68.428	14.148	14.586
434	0.048	3.689	3.737	1.587	66.835	68.422	14.036	14.557
435	0.050	3.685	3.735	1.641	66.773	68.414	14.361	14.692
436	0.052	3.681	3.733	1.703	66.705	68.408	14.384	14.693
437	0.054	3.677	3.731	1.771	66.630	68.401	14.156	14.521
438	0.056	3.673	3.729	1.839	66.554	68.392	14.590	15.037
439	0.058	3.669	3.727	1.901	66.484	68.385	14.996	15.441
440	0.060	3.665	3.725	1.962	66.416	68.378	15.210	15.297
441	0.062	3.661	3.723	2.034	66.337	68.371	14.774	15.328
442	0.064	3.657	3.721	2.103	66.259	68.362	15.075	15.729
443	0.067	3.652	3.719	2.178	66.174	68.352	15.671	16.234
444	0.069	3.647	3.716	2.258	66.085	68.343	15.582	16.095
445	0.071	3.642	3.714	2.335	65.998	68.333	15.434	16.159
446	0.074	3.637	3.711	2.415	65.906	68.321	15.747	16.555
447	0.076	3.633	3.709	2.489	65.822	68.311	15.879	16.584
448	0.079	3.627	3.706	2.574	65.725	68.299	16.291	16.802
449	0.081	3.622	3.703	2.662	65.626	68.289	16.568	17.210
450	0.084	3.616	3.700	2.752	65.525	68.277	16.868	17.540
451	0.087	3.610	3.697	2.848	65.417	68.265	16.499	17.124
452	0.090	3.604	3.694	2.945	65.308	68.253	16.358	17.084
453	0.093	3.598	3.691	3.037	65.203	68.240	17.054	17.706
454	0.096	3.593	3.688	3.126	65.102	68.229	17.666	18.258
455	0.099	3.587	3.685	3.226	64.991	68.216	18.334	18.840
456	0.102	3.580	3.682	3.329	64.875	68.204	18.782	19.334
457	0.105	3.574	3.679	3.438	64.753	68.190	18.927	19.504
458	0.108	3.567	3.675	3.549	64.628	68.177	18.843	19.224
459	0.112	3.560	3.672	3.658	64.507	68.165	19.011	19.260
460	0.115	3.553	3.669	3.768	64.386	68.155	19.269	19.688
461	0.119	3.547	3.665	3.879	64.264	68.143	19.750	20.328
462	0.122	3.539	3.661	3.997	64.132	68.129	19.645	20.332
463	0.126	3.532	3.658	4.116	63.998	68.114	19.985	20.584
464	0.130	3.524	3.654	4.238	63.861	68.099	20.150	20.753
465	0.133	3.517	3.650	4.358	63.727	68.085	19.956	20.422
466	0.137	3.510	3.647	4.476	63.597	68.073	20.273	21.152
467	0.141	3.502	3.643	4.598	63.459	68.057	20.655	21.353
468	0.144	3.495	3.639	4.717	63.326	68.043	20.751	21.370
469	0.148	3.487	3.635	4.842	63.187	68.029	21.019	21.790
470	0.152	3.479	3.631	4.969	63.044	68.013	21.719	22.688
471	0.156	3.471	3.627	5.096	62.901	67.997	21.411	22.479
472	0.160	3.463	3.623	5.224	62.755	67.979	20.650	21.750
473	0.164	3.455	3.619	5.355	62.607	67.962	22.252	23.342
474	0.168	3.447	3.614	5.490	62.453	67.942	23.050	23.878
475	0.172	3.438	3.610	5.631	62.294	67.925	22.166	23.233
476	0.176	3.429	3.605	5.773	62.132	67.905	22.259	23.282
477	0.181	3.420	3.601	5.911	61.976	67.887	23.121	24.364
478	0.185	3.411	3.596	6.055	61.811	67.866	22.959	24.203
479	0.190	3.402	3.591	6.203	61.641	67.844	23.152	24.661
480	0.194	3.392	3.587	6.351	61.470	67.821	23.004	24.003
481	0.199	3.383	3.582	6.500	61.302	67.802	22.464	23.919
482	0.203	3.374	3.577	6.645	61.134	67.779	23.210	24.744
483	0.208	3.364	3.572	6.797	60.958	67.755	23.939	25.162
484	0.212	3.354	3.567	6.952	60.782	67.734	23.911	25.491
485	0.217	3.345	3.562	7.104	60.606	67.710	24.354	26.253
486	0.222	3.335	3.557	7.260	60.424	67.684	24.565	26.191
487	0.226	3.327	3.552	7.388	60.276	67.664	25.264	26.770
488	0.230	3.317	3.548	7.534	60.108	67.643	26.276	28.270
489	0.235	3.307	3.542	7.701	59.914	67.615	26.960	29.497
490	0.240	3.296	3.536	7.862	59.723	67.586	27.247	29.705
491	0.246	3.284	3.530	8.045	59.508	67.553	27.751	29.855
492	0.251	3.273	3.524	8.223	59.301	67.524	28.064	30.286
493	0.257	3.262	3.518	8.397	59.098	67.495	28.371	30.998
494	0.262	3.249	3.512	8.584	58.876	67.461	28.488	30.874
495	0.268	3.237	3.505	8.768	58.660	67.428	29.319	31.688
496	0.274	3.224	3.498	8.970	58.423	67.393	29.516	31.956
497	0.280	3.212	3.492	9.162	58.196	67.358	28.621	31.307
498	0.286	3.199	3.485	9.354	57.969	67.322	28.533	31.058
499	0.292	3.187	3.479	9.540	57.749	67.289	30.312	32.715
500	0.298	3.174	3.472	9.738	57.518	67.256	31.042	33.696
501	0.304	3.161	3.465	9.941	57.279	67.220	30.651	32.989
502	0.310	3.149	3.458	10.136	57.052	67.188	31.156	33.469
503	0.316	3.136	3.452	10.335	56.821	67.155	32.698	34.851
504	0.323	3.122	3.444	10.553	56.568	67.121	32.800	35.075
505	0.329	3.109	3.438	10.757	56.331	67.088	30.795	32.703
506	0.335	3.096	3.431	10.965	56.093	67.057	31.733	33.796
507	0.342	3.081	3.423	11.187	55.836	67.023	32.255	34.404
508	0.348	3.068	3.416	11.403	55.586	66.989	30.647	32.768
509	0.355	3.055	3.410	11.604	55.353	66.958	30.423	32.240
510	0.361	3.042	3.403	11.815	55.112	66.927	30.588	32.009
511	0.367	3.029	3.396	12.021	54.878	66.899	29.677	31.381
512	0.374	3.016	3.389	12.225	54.644	66.870	32.281	33.680
513	0.381	3.002	3.382	12.453	54.387	66.840	33.308	34.274
514	0.387	2.988	3.375	12.675	54.138	66.813	32.592	33.211
515	0.394	2.975	3.369	12.888	53.903	66.791	34.579	35.416
516	0.401	2.961	3.362	13.121	53.645	66.765	35.125	35.064
517	0.408	2.946	3.355	13.359	53.386	66.745	35.226	35.053
518	0.414	2.935	3.349	13.555	53.174	66.730	37.230	36.696
519	0.422	2.921	3.342	13.793	52.921	66.714	36.216	35.892
520	0.428	2.907	3.336	14.017	52.680	66.697	36.776	36.079
521	0.436	2.893	3.329	14.265	52.416	66.682	36.838	35.889
522	0.444	2.878	3.322	14.518	52.149	66.667	35.909	35.366
523	0.451	2.863	3.315	14.772	51.879	66.651	37.676	37.256
524	0.459	2.848	3.307	15.022	51.611	66.634	37.659	36.779
525	0.467	2.833	3.300	15.292	51.325	66.617	36.756	35.583
526	0.475	2.817	3.293	15.554	51.050	66.605	38.079	36.461
527	0.483	2.802	3.286	15.818	50.776	66.594	38.884	37.026
528	0.491	2.789	3.279	16.054	50.532	66.586	39.712	37.276
529	0.499	2.773	3.272	16.331	50.251	66.581	39.380	36.874
530	0.508	2.757	3.265	16.618	49.959	66.577	39.702	36.808
531	0.516	2.742	3.258	16.897	49.678	66.575	39.486	36.747
532	0.525	2.725	3.251	17.191	49.382	66.573	39.997	36.789
533	0.534	2.709	3.243	17.484	49.089	66.573	40.401	36.752
534	0.542	2.695	3.237	17.749	48.828	66.577	40.644	37.585
535	0.551	2.679	3.230	18.035	48.540	66.575	41.847	38.398
536	0.560	2.662	3.223	18.334	48.242	66.576	40.862	36.565
537	0.570	2.646	3.216	18.640	47.945	66.586	41.868	37.391
538	0.579	2.631	3.209	18.930	47.664	66.594	43.223	38.029
539	0.588	2.614	3.202	19.246	47.363	66.610	43.281	37.922
540	0.598	2.598	3.195	19.556	47.069	66.625	43.895	37.943
541	0.607	2.582	3.189	19.859	46.786	66.645	44.748	38.373
542	0.616	2.567	3.183	20.157	46.508	66.665	45.846	40.105
543	0.626	2.549	3.176	20.490	46.193	66.683	47.120	40.281
544	0.637	2.532	3.169	20.828	45.881	66.709	47.268	39.310
545	0.647	2.515	3.162	21.179	45.564	66.743	46.087	38.712
546	0.658	2.498	3.155	21.516	45.258	66.774	46.843	38.726
547	0.668	2.481	3.149	21.853	44.956	66.809	46.944	38.443
548	0.678	2.464	3.143	22.197	44.651	66.848	47.520	39.178
549	0.689	2.448	3.136	22.535	44.349	66.884	48.774	39.591
550	0.700	2.430	3.130	22.896	44.031	66.927	49.198	39.898
551	0.711	2.413	3.123	23.255	43.715	66.970	50.096	40.774
552	0.722	2.395	3.117	23.622	43.391	67.014	50.089	39.976
553	0.733	2.377	3.110	23.998	43.067	67.065	51.195	40.472
554	0.745	2.359	3.104	24.371	42.746	67.118	49.637	39.088
555	0.756	2.342	3.098	24.742	42.430	67.172	49.533	38.617
556	0.768	2.324	3.092	25.115	42.115	67.229	49.416	37.967
557	0.779	2.307	3.086	25.483	41.809	67.292	49.701	37.957
558	0.790	2.291	3.081	25.843	41.510	67.353	51.483	39.492
559	0.801	2.273	3.075	26.224	41.193	67.417	51.627	39.284
560	0.813	2.257	3.069	26.588	40.893	67.481	52.230	39.870
561	0.824	2.240	3.064	26.962	40.583	67.545	52.569	40.392
562	0.836	2.221	3.058	27.363	40.250	67.612	51.352	38.902
563	0.848	2.204	3.052	27.735	39.943	67.678	51.817	38.447
564	0.860	2.187	3.047	28.125	39.630	67.754	53.472	39.384
565	0.872	2.170	3.041	28.522	39.312	67.834	53.330	40.117
566	0.884	2.152	3.035	28.922	38.985	67.906	56.298	41.683
567	0.896	2.134	3.030	29.320	38.664	67.984	56.777	42.510
568	0.909	2.115	3.024	29.752	38.315	68.066	56.837	41.817
569	0.922	2.096	3.018	30.180	37.972	68.152	55.911	41.686
570	0.935	2.077	3.012	30.591	37.641	68.232	54.858	40.598
571	0.947	2.060	3.007	30.994	37.318	68.312	56.318	41.408
572	0.960	2.042	3.001	31.396	36.997	68.394	56.193	41.315
573	0.972	2.023	2.996	31.820	36.660	68.480	57.835	42.736
574	0.986	2.004	2.990	32.260	36.306	68.567	60.139	44.429
575	1.000	1.984	2.983	32.716	35.941	68.657	59.116	43.887
576	1.013	1.964	2.977	33.154	35.588	68.742	58.623	43.371
577	1.026	1.945	2.971	33.586	35.241	68.828	57.829	42.618
578	1.040	1.925	2.965	34.026	34.889	68.915	54.964	40.419
579	1.052	1.908	2.960	34.430	34.567	68.997	56.047	40.714
580	1.065	1.890	2.955	34.847	34.238	69.085	56.497	41.322
581	1.078	1.871	2.949	35.280	33.895	69.175	58.229	42.595
582	1.092	1.851	2.943	35.726	33.541	69.267	60.082	44.163
583	1.106	1.831	2.937	36.193	33.168	69.362	59.353	44.027
584	1.120	1.810	2.930	36.663	32.790	69.453	59.545	44.041
585	1.135	1.789	2.924	37.132	32.415	69.546	58.413	42.919
586	1.149	1.769	2.918	37.590	32.051	69.640	57.892	42.310
587	1.162	1.749	2.912	38.034	31.699	69.733	58.390	42.602
588	1.176	1.729	2.906	38.493	31.336	69.830	59.548	43.378
589	1.190	1.709	2.900	38.951	30.974	69.925	60.426	44.198
590	1.203	1.692	2.894	39.355	30.653	70.008	61.886	45.345
591	1.216	1.672	2.889	39.793	30.305	70.098	57.580	42.999
592	1.230	1.653	2.882	40.232	29.949	70.181	58.002	43.413
593	1.243	1.633	2.876	40.664	29.598	70.262	59.017	43.776
594	1.256	1.614	2.870	41.112	29.238	70.351	58.268	43.279
595	1.270	1.594	2.864	41.552	28.884	70.436	57.839	42.880
596	1.283	1.575	2.858	41.986	28.536	70.521	57.025	42.544
597	1.297	1.555	2.852	42.428	28.178	70.606	56.865	42.563
598	1.310	1.535	2.845	42.869	27.820	70.688	57.668	42.851
599	1.324	1.516	2.839	43.309	27.464	70.773	58.581	43.323
600	1.337	1.496	2.833	43.759	27.104	70.863	59.160	43.792
601	1.351	1.475	2.827	44.220	26.734	70.954	59.748	43.963
602	1.365	1.455	2.821	44.679	26.367	71.047	59.256	43.675
603	1.379	1.435	2.814	45.129	26.007	71.136	58.655	42.971
604	1.393	1.415	2.808	45.585	25.645	71.230	59.322	43.480
605	1.407	1.395	2.802	46.054	25.272	71.326	59.501	43.586
606	1.422	1.374	2.796	46.525	24.897	71.423	59.692	43.670
607	1.436	1.353	2.790	46.999	24.522	71.521	58.280	42.818
608	1.450	1.333	2.783	47.462	24.153	71.614	57.002	42.204
609	1.464	1.313	2.777	47.916	23.789	71.705	55.897	41.416
610	1.478	1.293	2.771	48.358	23.433	71.791	54.792	40.801
611	1.491	1.274	2.765	48.789	23.085	71.874	55.726	41.190
612	1.504	1.255	2.759	49.228	22.733	71.961	58.053	42.505
613	1.519	1.234	2.753	49.693	22.364	72.057	60.672	44.049
614	1.533	1.213	2.747	50.173	21.987	72.159	62.377	45.110
615	1.548	1.193	2.741	50.651	21.611	72.262	61.311	44.421
616	1.563	1.171	2.734	51.140	21.226	72.367	59.381	43.096
617	1.577	1.151	2.728	51.602	20.864	72.466	57.209	41.737
618	1.590	1.132	2.723	52.040	20.517	72.557	55.005	40.376
619	1.604	1.113	2.717	52.479	20.167	72.646	53.735	39.638
620	1.617	1.094	2.711	52.911	19.822	72.733	53.354	39.403
621	1.630	1.075	2.705	53.341	19.478	72.819	55.503	40.646
622	1.644	1.055	2.699	53.792	19.119	72.911	59.364	43.058
623	1.658	1.035	2.693	54.257	18.753	73.010	61.908	44.563
624	1.673	1.014	2.687	54.739	18.376	73.115	62.221	44.691
625	1.688	0.993	2.681	55.225	17.998	73.222	60.956	43.614
626	1.702	0.973	2.675	55.697	17.631	73.328	58.598	42.045
627	1.716	0.953	2.670	56.153	17.276	73.429	57.640	41.477
628	1.730	0.934	2.664	56.612	16.918	73.530	57.064	41.149
629	1.743	0.915	2.658	57.042	16.582	73.623	57.393	41.541
630	1.757	0.896	2.653	57.494	16.227	73.721	57.925	41.868
631	1.771	0.876	2.647	57.943	15.875	73.818	58.261	41.957
632	1.785	0.856	2.641	58.402	15.516	73.918	59.062	42.608
633	1.799	0.837	2.636	58.850	15.166	74.016	59.361	42.482
634	1.813	0.816	2.630	59.331	14.793	74.124	59.788	42.532
635	1.828	0.796	2.624	59.808	14.424	74.232	60.186	42.639
636	1.843	0.775	2.618	60.298	14.048	74.346	60.070	42.563
637	1.857	0.755	2.612	60.775	13.681	74.456	60.177	42.330
638	1.872	0.734	2.607	61.269	13.304	74.574	59.884	41.927
639	1.888	0.713	2.601	61.766	12.927	74.693	59.295	41.269
640	1.903	0.693	2.596	62.254	12.558	74.812	58.986	41.143
641	1.917	0.673	2.590	62.734	12.196	74.929	58.956	40.961
642	1.932	0.653	2.585	63.213	11.835	75.048	59.819	41.515
643	1.947	0.633	2.580	63.701	11.468	75.170	60.222	41.459
644	1.962	0.612	2.574	64.197	11.098	75.295	60.791	41.341
645	1.977	0.592	2.569	64.698	10.729	75.427	60.659	40.865
646	1.993	0.572	2.564	65.202	10.360	75.562	59.413	40.084
647	2.007	0.552	2.560	65.682	10.009	75.691	59.040	39.347
648	2.022	0.533	2.555	66.155	9.666	75.822	58.330	38.752
649	2.036	0.515	2.551	66.621	9.331	75.952	58.834	38.676
650	2.050	0.497	2.547	67.076	9.007	76.083	59.666	39.053
651	2.064	0.479	2.543	67.542	8.676	76.218	60.976	39.177
652	2.080	0.459	2.539	68.050	8.322	76.372	61.626	39.034
653	2.095	0.441	2.535	68.544	7.982	76.526	60.881	38.223
654	2.110	0.422	2.532	69.049	7.638	76.687	60.439	37.180
655	2.125	0.403	2.529	69.543	7.308	76.852	59.754	36.312
656	2.140	0.386	2.526	70.010	7.001	77.011	58.819	35.552
657	2.152	0.372	2.524	70.413	6.737	77.150	59.675	35.378
658	2.165	0.357	2.522	70.842	6.461	77.303	60.214	35.040
659	2.180	0.340	2.520	71.325	6.156	77.482	60.644	34.592
660	2.195	0.323	2.518	71.817	5.852	77.669	61.719	34.192
661	2.210	0.306	2.516	72.322	5.548	77.870	60.910	33.079
662	2.225	0.290	2.516	72.818	5.257	78.074	60.088	31.793
663	2.240	0.275	2.515	73.303	4.978	78.281	59.714	30.710
664	2.255	0.260	2.515	73.787	4.709	78.495	59.039	29.847
665	2.270	0.245	2.515	74.269	4.445	78.714	59.054	28.996
666	2.285	0.231	2.516	74.764	4.181	78.945	60.038	28.526
667	2.300	0.216	2.517	75.268	3.921	79.189	61.006	27.889
668	2.316	0.202	2.518	75.777	3.669	79.445	61.450	27.003
669	2.332	0.189	2.521	76.290	3.424	79.715	61.582	25.823
670	2.348	0.176	2.523	76.814	3.187	80.000	61.247	24.583
671	2.363	0.163	2.527	77.331	2.962	80.293	59.610	23.095
672	2.379	0.152	2.530	77.831	2.752	80.583	59.157	21.878
673	2.394	0.141	2.535	78.324	2.553	80.877	59.666	20.958
674	2.409	0.130	2.539	78.827	2.362	81.188	59.238	19.919
675	2.424	0.120	2.545	79.322	2.182	81.504	60.461	19.025
676	2.440	0.111	2.551	79.825	2.011	81.836	61.137	17.978
677	2.455	0.102	2.557	80.342	1.847	82.189	60.327	16.712
678	2.471	0.094	2.564	80.848	1.694	82.543	60.093	15.590
679	2.486	0.086	2.572	81.353	1.553	82.906	59.288	14.505
680	2.501	0.078	2.580	81.849	1.421	83.270	58.695	13.519
681	2.517	0.072	2.588	82.344	1.298	83.642	59.409	12.667
682	2.532	0.065	2.597	82.842	1.182	84.024	59.961	11.790
683	2.547	0.059	2.607	83.350	1.074	84.424	60.052	10.921
684	2.563	0.054	2.616	83.850	0.976	84.826	60.070	10.036
685	2.578	0.049	2.627	84.348	0.885	85.233	59.942	9.201
686	2.593	0.044	2.637	84.849	0.801	85.650	58.592	8.414
687	2.608	0.040	2.648	85.328	0.726	86.054	57.742	7.664
688	2.618	0.037	2.656	85.669	0.678	86.347	58.929	7.106
689	2.630	0.035	2.665	86.073	0.625	86.698	58.590	6.530
690	2.643	0.032	2.675	86.478	0.577	87.055	58.786	5.992
691	2.656	0.029	2.685	86.902	0.529	87.432	60.190	5.501
692	2.670	0.027	2.697	87.358	0.485	87.842	59.930	5.038
693	2.684	0.024	2.708	87.824	0.443	88.267	59.694	4.608
694	2.698	0.022	2.720	88.284	0.405	88.689	59.370	4.198
695	2.712	0.020	2.732	88.739	0.369	89.108	59.808	3.846
696	2.726	0.019	2.745	89.205	0.336	89.541	60.255	3.511
697	2.741	0.017	2.758	89.676	0.306	89.982	60.849	3.188
698	2.756	0.015	2.771	90.181	0.277	90.458	61.380	2.895
699	2.771	0.014	2.785	90.684	0.251	90.935	60.821	2.616
700	2.786	0.013	2.799	91.170	0.229	91.398	60.395	2.368
701	2.801	0.011	2.812	91.648	0.208	91.856	60.458	2.167
702	2.815	0.010	2.826	92.124	0.189	92.313	60.278	1.989
703	2.830	0.009	2.839	92.599	0.172	92.771	60.892	1.812
704	2.845	0.009	2.853	93.084	0.156	93.240	62.144	1.654
705	2.860	0.008	2.868	93.592	0.142	93.734	61.851	1.501
706	2.876	0.007	2.883	94.103	0.129	94.232	60.687	1.346
707	2.891	0.006	2.898	94.601	0.117	94.718	60.670	1.220
708	2.906	0.006	2.912	95.100	0.106	95.207	60.609	1.120
709	2.921	0.005	2.927	95.595	0.096	95.690	59.943	1.033
710	2.937	0.005	2.941	96.089	0.087	96.175	59.751	0.936
711	2.952	0.004	2.956	96.587	0.079	96.665	62.706	0.859
712	2.968	0.004	2.972	97.105	0.071	97.176	62.764	0.788
713	2.984	0.004	2.987	97.625	0.064	97.689	61.894	0.717
714	2.999	0.003	3.002	98.129	0.058	98.186	61.130	0.648
715	3.014	0.003	3.017	98.631	0.053	98.684	60.758	0.590
716	3.029	0.003	3.032	99.115	0.047	99.162	62.115	0.546
717	3.044	0.002	3.047	99.614	0.042	99.656	63.319	0.507
718	3.058	0.002	3.060	100.062	0.038	100.100	63.965	0.465
719	3.071	0.002	3.073	100.483	0.034	100.517	64.469	0.426
720	3.083	0.002	3.084	100.865	0.032	100.896	63.744	0.388
721	3.095	0.002	3.096	101.268	0.029	101.297	63.459	0.351
722	3.108	0.001	3.110	101.710	0.026	101.737	62.843	0.323
723	3.124	0.001	3.125	102.211	0.024	102.234	63.009	0.295
724	3.138	0.001	3.139	102.673	0.021	102.694	64.331	0.274
725	3.151	0.001	3.152	103.112	0.018	103.130	65.751	0.253
726	3.165	0.001	3.166	103.553	0.017	103.570	66.219	0.233
727	3.179	0.001	3.180	104.015	0.016	104.031	66.104	0.214
728	3.193	0.001	3.194	104.481	0.014	104.495	65.227	0.193
729	3.207	0.001	3.207	104.921	0.013	104.935	64.770	0.177
730	3.220	0.001	3.221	105.362	0.012	105.374	64.744	0.163
731	3.235	0.001	3.235	105.838	0.011	105.849	65.542	0.151
732	3.249	0.001	3.249	106.295	0.009	106.304	66.789	0.140
733	3.264	0.000	3.264	106.797	0.008	106.804	67.071	0.128
734	3.280	0.000	3.280	107.320	0.007	107.326	67.194	0.117
735	3.296	0.000	3.297	107.864	0.005	107.869	66.060	0.107
736	3.313	0.000	3.313	108.391	0.004	108.394	65.528	0.097
737	3.328	0.000	3.329	108.909	0.003	108.912	65.601	0.090
738	3.344	0.000	3.344	109.429	0.001	109.430	65.773	0.082
739	3.360	0.000	3.360	109.959	0.000	109.959	67.316	0.077
740	3.377	0.000	3.377	110.488	0.000	110.488	67.864	0.071
741	3.393	0.000	3.393	111.034	0.000	111.034	67.293	0.065
742	3.410	0.000	3.410	111.574	0.000	111.574	67.213	0.059
743	3.426	0.000	3.426	112.114	0.000	112.114	66.174	0.054
744	3.443	0.000	3.443	112.657	0.000	112.657	65.674	0.050
745	3.460	0.000	3.460	113.201	0.000	113.201	66.721	0.046
746	3.476	0.000	3.476	113.754	0.000	113.754	66.988	0.042
747	3.493	0.000	3.493	114.310	0.000	114.310	67.401	0.039
748	3.511	0.000	3.511	114.871	0.000	114.871	67.827	0.036
