Wavelength (nm) 	 Efficiency Div Wav 1 (%) 	 Efficiency Div Wav 2 (%) 	 Efficiency Div Wav total (%) 	 Jsc Div Wav 1 (A m^-2) 	 Jsc Div Wav 2 (A m^-2) 	 Jsc Div Wav total (A m^-2) 	 EQE Curve 1 (%) 	 EQE Curve 2 (%) 	Jsc 1 correction factor: 0.13134985171721028	Jsc 2 correction factor: 0.11138078088588836
400	0.000	11.892	11.892	0.000	241.850	241.850	11.562	25.882
401	0.002	11.888	11.890	0.041	241.772	241.813	12.501	28.075
402	0.005	11.884	11.889	0.087	241.683	241.770	12.457	28.702
403	0.007	11.879	11.887	0.135	241.588	241.724	12.445	28.444
404	0.010	11.875	11.885	0.183	241.497	241.679	12.315	27.922
405	0.013	11.870	11.883	0.230	241.406	241.635	12.395	27.980
406	0.015	11.866	11.881	0.277	241.316	241.594	12.285	28.449
407	0.018	11.861	11.879	0.323	241.227	241.551	12.613	29.270
408	0.020	11.857	11.877	0.369	241.137	241.506	12.719	29.922
409	0.023	11.852	11.875	0.418	241.040	241.458	12.726	30.587
410	0.026	11.847	11.873	0.470	240.933	241.404	12.815	30.901
411	0.028	11.842	11.871	0.515	240.841	241.356	12.862	31.634
412	0.031	11.837	11.868	0.566	240.735	241.301	12.899	32.048
413	0.034	11.832	11.866	0.620	240.620	241.240	12.759	32.007
414	0.037	11.826	11.863	0.673	240.510	241.183	12.997	32.555
415	0.040	11.821	11.861	0.725	240.399	241.124	12.881	32.540
416	0.043	11.815	11.858	0.779	240.283	241.062	13.102	33.401
417	0.046	11.809	11.855	0.835	240.160	240.996	13.272	33.853
418	0.049	11.803	11.852	0.892	240.038	240.930	13.589	34.349
419	0.052	11.797	11.849	0.947	239.919	240.866	13.613	34.766
420	0.055	11.791	11.846	1.005	239.793	240.798	13.375	34.381
421	0.058	11.785	11.844	1.057	239.678	240.735	13.366	34.505
422	0.062	11.779	11.840	1.118	239.547	240.664	13.586	35.146
423	0.065	11.772	11.837	1.178	239.414	240.592	13.738	35.410
424	0.068	11.766	11.834	1.237	239.284	240.521	13.738	36.157
425	0.072	11.759	11.831	1.296	239.151	240.448	13.556	35.648
426	0.075	11.753	11.828	1.357	239.016	240.373	13.906	36.716
427	0.078	11.746	11.824	1.417	238.881	240.298	14.082	37.390
428	0.081	11.739	11.821	1.476	238.746	240.222	14.032	37.327
429	0.085	11.733	11.818	1.537	238.610	240.147	13.719	36.953
430	0.088	11.727	11.814	1.592	238.485	240.077	13.922	37.920
431	0.090	11.722	11.812	1.637	238.383	240.019	14.528	39.838
432	0.093	11.717	11.809	1.679	238.285	239.963	14.560	39.411
433	0.097	11.709	11.805	1.750	238.122	239.872	14.586	39.568
434	0.100	11.701	11.801	1.815	237.969	239.785	14.557	39.555
435	0.104	11.694	11.798	1.877	237.828	239.705	14.692	40.958
436	0.107	11.686	11.794	1.945	237.667	239.612	14.693	40.583
437	0.111	11.678	11.789	2.020	237.491	239.511	14.521	40.129
438	0.116	11.669	11.785	2.096	237.312	239.409	15.037	41.610
439	0.120	11.661	11.780	2.166	237.150	239.316	15.441	43.323
440	0.123	11.653	11.776	2.234	236.986	239.220	15.297	42.659
441	0.128	11.644	11.771	2.313	236.800	239.113	15.328	42.684
442	0.132	11.635	11.767	2.391	236.616	239.007	15.729	41.932
443	0.137	11.625	11.762	2.476	236.424	238.899	16.234	44.440
444	0.142	11.615	11.757	2.565	236.215	238.781	16.095	44.982
445	0.146	11.605	11.751	2.652	236.009	238.661	16.159	45.099
446	0.151	11.594	11.746	2.744	235.793	238.537	16.555	45.522
447	0.156	11.585	11.741	2.828	235.596	238.424	16.584	46.117
448	0.161	11.573	11.735	2.925	235.369	238.294	16.802	47.116
449	0.167	11.562	11.729	3.024	235.134	238.157	17.210	46.230
450	0.172	11.550	11.723	3.125	234.902	238.027	17.540	48.360
451	0.178	11.538	11.716	3.233	234.650	237.883	17.124	46.062
452	0.184	11.526	11.710	3.342	234.401	237.742	17.084	44.720
453	0.190	11.514	11.705	3.447	234.168	237.615	17.706	46.914
454	0.196	11.503	11.699	3.548	233.941	237.489	18.258	48.121
455	0.202	11.491	11.693	3.659	233.691	237.351	18.840	49.593
456	0.208	11.478	11.687	3.775	233.434	237.209	19.334	49.802
457	0.215	11.465	11.680	3.897	233.167	237.064	19.504	50.552
458	0.222	11.452	11.674	4.022	232.893	236.915	19.224	50.156
459	0.229	11.438	11.667	4.143	232.627	236.769	19.260	49.848
460	0.235	11.425	11.661	4.264	232.361	236.625	19.688	50.941
461	0.242	11.412	11.654	4.386	232.092	236.478	20.328	52.219
462	0.249	11.398	11.647	4.518	231.805	236.323	20.332	51.178
463	0.257	11.384	11.641	4.652	231.519	236.172	20.584	51.045
464	0.264	11.370	11.634	4.789	231.233	236.022	20.753	50.024
465	0.272	11.357	11.628	4.923	230.960	235.883	20.422	49.587
466	0.279	11.343	11.622	5.053	230.693	235.746	21.152	49.956
467	0.286	11.330	11.616	5.191	230.417	235.608	21.353	50.814
468	0.294	11.317	11.610	5.324	230.148	235.472	21.370	50.463
469	0.301	11.303	11.604	5.463	229.869	235.332	21.790	50.844
470	0.309	11.289	11.598	5.606	229.586	235.192	22.688	52.734
471	0.317	11.275	11.592	5.749	229.303	235.052	22.479	51.704
472	0.325	11.261	11.586	5.895	229.019	234.914	21.750	49.099
473	0.334	11.247	11.581	6.043	228.734	234.777	23.342	52.777
474	0.342	11.233	11.575	6.197	228.440	234.637	23.878	54.510
475	0.351	11.217	11.568	6.356	228.131	234.487	23.233	52.453
476	0.360	11.202	11.562	6.518	227.823	234.340	23.282	52.008
477	0.368	11.188	11.556	6.674	227.526	234.200	24.364	54.208
478	0.377	11.172	11.550	6.839	227.216	234.055	24.203	54.315
479	0.387	11.157	11.543	7.009	226.894	233.903	24.661	54.450
480	0.396	11.141	11.537	7.180	226.575	233.755	24.003	52.704
481	0.406	11.125	11.531	7.348	226.261	233.609	23.919	51.290
482	0.415	11.110	11.525	7.516	225.955	233.471	24.744	53.327
483	0.425	11.095	11.519	7.692	225.634	233.326	25.162	54.635
484	0.434	11.079	11.513	7.868	225.309	233.177	25.491	54.498
485	0.444	11.063	11.507	8.044	224.989	233.033	26.253	54.936
486	0.454	11.047	11.501	8.226	224.666	232.893	26.191	55.336
487	0.462	11.034	11.496	8.374	224.403	232.777	26.770	56.275
488	0.471	11.019	11.491	8.542	224.103	232.644	28.270	59.903
489	0.482	11.002	11.484	8.736	223.753	232.489	29.497	60.993
490	0.493	10.986	11.478	8.927	223.418	232.344	29.705	61.333
491	0.505	10.967	11.472	9.142	223.040	232.182	29.855	61.571
492	0.516	10.949	11.465	9.349	222.676	232.025	30.286	63.288
493	0.527	10.932	11.459	9.552	222.318	231.870	30.998	64.228
494	0.539	10.912	11.452	9.774	221.928	231.702	30.874	63.831
495	0.551	10.894	11.445	9.990	221.549	231.539	31.688	64.226
496	0.564	10.874	11.438	10.227	221.143	231.370	31.956	64.141
497	0.577	10.855	11.432	10.454	220.758	231.212	31.307	62.588
498	0.589	10.836	11.425	10.681	220.372	231.054	31.058	62.805
499	0.602	10.817	11.419	10.901	219.996	230.897	32.715	65.814
500	0.614	10.798	11.412	11.132	219.601	230.732	33.696	67.746
501	0.628	10.778	11.405	11.371	219.193	230.564	32.989	67.079
502	0.640	10.759	11.399	11.598	218.801	230.399	33.469	67.476
503	0.653	10.739	11.392	11.829	218.405	230.235	34.851	70.280
504	0.667	10.718	11.385	12.082	217.973	230.055	35.075	70.368
505	0.680	10.698	11.378	12.319	217.569	229.888	32.703	66.776
506	0.693	10.678	11.371	12.557	217.157	229.714	33.796	67.439
507	0.707	10.656	11.364	12.814	216.721	229.536	34.404	69.091
508	0.721	10.636	11.357	13.064	216.297	229.361	32.768	65.154
509	0.734	10.616	11.350	13.297	215.905	229.202	32.240	62.752
510	0.747	10.597	11.344	13.538	215.506	229.044	32.009	63.499
511	0.760	10.577	11.337	13.772	215.113	228.885	31.381	60.921
512	0.773	10.558	11.331	14.006	214.728	228.734	33.680	65.638
513	0.787	10.537	11.325	14.263	214.302	228.565	34.274	67.496
514	0.801	10.517	11.318	14.512	213.889	228.401	33.211	65.457
515	0.814	10.498	11.312	14.747	213.496	228.242	35.416	69.514
516	0.828	10.477	11.305	15.005	213.065	228.070	35.064	69.791
517	0.842	10.455	11.298	15.264	212.628	227.892	35.053	70.198
518	0.854	10.438	11.292	15.476	212.269	227.745	36.696	75.224
519	0.868	10.416	11.284	15.729	211.828	227.558	35.892	71.775
520	0.881	10.396	11.277	15.970	211.420	227.389	36.079	71.919
521	0.896	10.374	11.270	16.234	210.973	227.207	35.889	72.369
522	0.911	10.351	11.262	16.501	210.516	227.018	35.366	70.448
523	0.926	10.329	11.254	16.771	210.061	226.832	37.256	72.853
524	0.940	10.307	11.247	17.039	209.616	226.655	36.779	71.886
525	0.956	10.284	11.240	17.325	209.143	226.468	35.583	70.308
526	0.971	10.261	11.232	17.600	208.682	226.281	36.461	71.825
527	0.986	10.239	11.225	17.874	208.224	226.098	37.026	73.579
528	1.000	10.218	11.218	18.118	207.813	225.932	37.276	74.665
529	1.015	10.195	11.210	18.399	207.335	225.735	36.874	73.905
530	1.032	10.171	11.202	18.691	206.840	225.531	36.808	74.095
531	1.047	10.147	11.194	18.972	206.360	225.332	36.747	73.692
532	1.063	10.122	11.186	19.268	205.857	225.125	36.789	73.062
533	1.080	10.098	11.178	19.561	205.365	224.926	36.752	73.909
534	1.094	10.076	11.170	19.822	204.919	224.741	37.585	73.986
535	1.110	10.053	11.162	20.110	204.441	224.550	38.398	75.755
536	1.126	10.028	11.154	20.408	203.942	224.349	36.565	73.891
537	1.143	10.003	11.146	20.705	203.433	224.137	37.391	75.907
538	1.158	9.979	11.137	20.986	202.949	223.935	38.029	77.876
539	1.175	9.953	11.128	21.287	202.426	223.712	37.922	77.185
540	1.191	9.929	11.120	21.581	201.918	223.499	37.943	78.258
541	1.207	9.904	11.111	21.864	201.421	223.286	38.373	78.891
542	1.222	9.880	11.102	22.142	200.938	223.079	40.105	81.975
543	1.239	9.853	11.093	22.457	200.391	222.848	40.281	83.336
544	1.257	9.826	11.083	22.769	199.842	222.611	39.310	82.318
545	1.274	9.799	11.073	23.086	199.278	222.364	38.712	80.901
546	1.291	9.772	11.063	23.392	198.736	222.128	38.726	80.509
547	1.308	9.746	11.053	23.694	198.202	221.896	38.443	80.616
548	1.324	9.719	11.044	23.999	197.660	221.659	39.178	82.190
549	1.341	9.693	11.034	24.301	197.122	221.423	39.591	83.384
550	1.359	9.665	11.023	24.619	196.555	221.174	39.898	84.261
551	1.376	9.637	11.013	24.935	195.989	220.924	40.774	85.188
552	1.394	9.609	11.003	25.259	195.415	220.674	39.976	84.940
553	1.412	9.580	10.992	25.583	194.829	220.413	40.472	87.058
554	1.430	9.551	10.981	25.904	194.246	220.149	39.088	83.263
555	1.447	9.523	10.970	26.220	193.674	219.895	38.617	83.104
556	1.464	9.495	10.959	26.535	193.099	219.634	37.967	82.657
557	1.481	9.467	10.948	26.841	192.533	219.374	37.957	83.355
558	1.498	9.440	10.938	27.140	191.978	219.118	39.492	86.386
559	1.515	9.411	10.926	27.457	191.389	218.846	39.284	84.672
560	1.532	9.384	10.916	27.757	190.841	218.598	39.870	86.949
561	1.549	9.356	10.905	28.067	190.268	218.335	40.392	87.921
562	1.567	9.325	10.893	28.400	189.653	218.053	38.902	84.678
563	1.584	9.298	10.882	28.707	189.088	217.794	38.447	84.953
564	1.602	9.269	10.870	29.020	188.500	217.520	39.384	87.884
565	1.619	9.239	10.858	29.338	187.898	217.237	40.117	88.335
566	1.637	9.209	10.846	29.665	187.289	216.954	41.683	92.769
567	1.655	9.180	10.834	29.986	186.685	216.671	42.510	92.029
568	1.674	9.148	10.822	30.335	186.043	216.378	41.817	91.720
569	1.693	9.117	10.810	30.678	185.407	216.085	41.686	90.231
570	1.711	9.087	10.798	31.009	184.797	215.806	40.598	89.401
571	1.729	9.057	10.786	31.332	184.194	215.526	41.408	91.737
572	1.747	9.027	10.774	31.653	183.591	215.244	41.315	90.581
573	1.765	8.996	10.762	31.990	182.963	214.953	42.736	94.074
574	1.785	8.964	10.749	32.344	182.305	214.648	44.429	96.333
575	1.805	8.931	10.736	32.709	181.634	214.343	43.887	94.211
576	1.825	8.900	10.724	33.062	180.992	214.054	43.371	93.328
577	1.844	8.868	10.712	33.409	180.359	213.768	42.618	91.956
578	1.863	8.837	10.700	33.761	179.715	213.476	40.419	86.989
579	1.881	8.808	10.689	34.083	179.128	213.211	40.714	88.295
580	1.899	8.778	10.677	34.412	178.522	212.935	41.322	89.546
581	1.918	8.747	10.665	34.755	177.893	212.648	42.595	92.152
582	1.938	8.715	10.653	35.109	177.244	212.352	44.163	94.380
583	1.958	8.682	10.640	35.482	176.567	212.049	44.027	93.081
584	1.979	8.649	10.628	35.860	175.890	211.750	44.041	93.046
585	2.000	8.616	10.615	36.235	175.216	211.452	42.919	90.780
586	2.020	8.583	10.603	36.599	174.563	211.162	42.310	89.751
587	2.039	8.552	10.592	36.951	173.930	210.881	42.602	90.566
588	2.059	8.520	10.579	37.314	173.276	210.590	43.378	92.491
589	2.079	8.488	10.567	37.676	172.621	210.298	44.198	94.480
590	2.097	8.459	10.556	37.997	172.041	210.038	45.345	95.886
591	2.116	8.429	10.545	38.345	171.416	209.761	42.999	88.429
592	2.136	8.398	10.534	38.701	170.797	209.498	43.413	89.166
593	2.155	8.368	10.523	39.052	170.185	209.237	43.776	90.649
594	2.175	8.337	10.512	39.412	169.553	208.964	43.279	89.631
595	2.195	8.307	10.501	39.766	168.931	208.697	42.880	88.334
596	2.214	8.277	10.490	40.114	168.322	208.436	42.544	86.892
597	2.234	8.246	10.480	40.472	167.704	208.175	42.563	86.529
598	2.253	8.216	10.469	40.830	167.087	207.917	42.851	87.247
599	2.273	8.186	10.459	41.186	166.473	207.659	43.323	88.913
600	2.293	8.155	10.448	41.546	165.846	207.392	43.792	89.274
601	2.313	8.123	10.437	41.916	165.206	207.122	43.963	89.958
602	2.334	8.092	10.426	42.283	164.570	206.852	43.675	89.204
603	2.353	8.061	10.415	42.643	163.947	206.590	42.971	88.286
604	2.373	8.030	10.404	43.005	163.315	206.321	43.480	89.382
605	2.394	7.998	10.392	43.378	162.666	206.044	43.586	89.695
606	2.415	7.966	10.381	43.753	162.013	205.766	43.670	89.844
607	2.435	7.934	10.370	44.128	161.358	205.487	42.818	87.659
608	2.456	7.903	10.358	44.497	160.718	205.215	42.204	85.787
609	2.476	7.872	10.348	44.861	160.090	204.951	41.416	83.869
610	2.495	7.842	10.337	45.217	159.479	204.697	40.801	82.447
611	2.515	7.812	10.327	45.565	158.884	204.449	41.190	83.553
612	2.534	7.783	10.317	45.917	158.279	204.196	42.505	87.052
613	2.554	7.751	10.306	46.286	157.637	203.924	44.049	91.530
614	2.575	7.718	10.294	46.663	156.972	203.636	45.110	94.026
615	2.596	7.686	10.282	47.039	156.308	203.347	44.421	92.003
616	2.617	7.653	10.270	47.424	155.632	203.056	43.096	89.097
617	2.637	7.621	10.259	47.786	154.996	202.783	41.737	85.497
618	2.656	7.592	10.248	48.133	154.395	202.528	40.376	81.956
619	2.676	7.562	10.238	48.483	153.795	202.277	39.638	80.221
620	2.695	7.533	10.228	48.828	153.201	202.029	39.403	79.329
621	2.714	7.504	10.218	49.172	152.613	201.785	40.646	82.702
622	2.734	7.474	10.207	49.531	151.995	201.525	43.058	88.521
623	2.754	7.442	10.196	49.897	151.356	201.254	44.563	92.414
624	2.775	7.410	10.184	50.274	150.695	200.969	44.691	92.870
625	2.795	7.377	10.173	50.652	150.029	200.681	43.614	90.815
626	2.816	7.345	10.161	51.019	149.382	200.401	42.045	86.930
627	2.835	7.315	10.150	51.374	148.761	200.135	41.477	85.274
628	2.855	7.284	10.139	51.732	148.136	199.869	41.149	84.242
629	2.874	7.255	10.129	52.068	147.552	199.620	41.541	84.885
630	2.893	7.225	10.118	52.423	146.938	199.361	41.868	85.167
631	2.913	7.195	10.108	52.775	146.331	199.106	41.957	85.507
632	2.932	7.165	10.097	53.134	145.711	198.844	42.608	86.543
633	2.952	7.135	10.087	53.484	145.106	198.590	42.482	86.778
634	2.972	7.103	10.076	53.857	144.460	198.317	42.532	87.657
635	2.993	7.072	10.064	54.226	143.816	198.042	42.639	88.128
636	3.013	7.039	10.053	54.602	143.158	197.760	42.563	88.175
637	3.034	7.008	10.041	54.969	142.513	197.481	42.330	87.661
638	3.054	6.975	10.029	55.346	141.851	197.197	41.927	86.657
639	3.075	6.942	10.018	55.723	141.191	196.913	41.269	85.596
640	3.096	6.911	10.006	56.092	140.542	196.634	41.143	85.338
641	3.116	6.879	9.995	56.454	139.904	196.358	40.961	85.295
642	3.136	6.848	9.983	56.815	139.266	196.081	41.515	86.695
643	3.156	6.816	9.972	57.182	138.616	195.797	41.459	86.884
644	3.176	6.784	9.960	57.552	137.958	195.511	41.341	87.534
645	3.197	6.751	9.948	57.921	137.295	195.216	40.865	87.064
646	3.217	6.718	9.935	58.290	136.629	194.919	40.084	85.291
647	3.236	6.687	9.923	58.641	135.995	194.636	39.347	84.733
648	3.255	6.656	9.912	58.984	135.370	194.354	38.752	83.618
649	3.274	6.626	9.900	59.319	134.756	194.075	38.676	83.926
650	3.292	6.597	9.888	59.643	134.159	193.803	39.053	85.076
651	3.310	6.567	9.877	59.974	133.548	193.522	39.177	86.916
652	3.329	6.534	9.863	60.328	132.882	193.209	39.034	87.740
653	3.348	6.502	9.850	60.668	132.235	192.902	38.223	86.840
654	3.367	6.470	9.837	61.012	131.572	192.584	37.180	85.893
655	3.385	6.438	9.823	61.342	130.926	192.268	36.312	84.468
656	3.402	6.408	9.810	61.649	130.320	191.969	35.552	83.050
657	3.417	6.382	9.799	61.913	129.796	191.710	35.378	84.508
658	3.432	6.355	9.787	62.189	129.238	191.427	35.040	85.213
659	3.449	6.324	9.773	62.494	128.609	191.103	34.592	85.746
660	3.466	6.292	9.758	62.798	127.970	190.768	34.192	87.394
661	3.482	6.260	9.743	63.102	127.312	190.413	33.079	86.086
662	3.499	6.228	9.727	63.393	126.668	190.061	31.793	84.761
663	3.514	6.197	9.711	63.672	126.037	189.709	30.710	84.358
664	3.529	6.167	9.695	63.941	125.409	189.350	29.847	83.334
665	3.543	6.136	9.679	64.205	124.783	188.988	28.996	82.907
666	3.558	6.104	9.662	64.469	124.144	188.613	28.526	84.204
667	3.572	6.072	9.645	64.729	123.495	188.224	27.889	85.992
668	3.586	6.040	9.626	64.981	122.835	187.817	27.003	86.084
669	3.600	6.007	9.607	65.226	122.174	187.399	25.823	86.260
670	3.613	5.974	9.587	65.463	121.500	186.963	24.583	85.727
671	3.625	5.942	9.567	65.688	120.834	186.522	23.095	83.328
672	3.637	5.910	9.547	65.898	120.191	186.089	21.878	82.672
673	3.648	5.879	9.527	66.097	119.557	185.654	20.958	83.474
674	3.658	5.847	9.505	66.288	118.911	185.200	19.919	82.525
675	3.668	5.816	9.484	66.468	118.276	184.745	19.025	84.240
676	3.678	5.784	9.462	66.639	117.633	184.272	17.978	84.864
677	3.687	5.752	9.438	66.803	116.973	183.776	16.712	83.646
678	3.695	5.720	9.415	66.956	116.327	183.283	15.590	83.256
679	3.703	5.688	9.391	67.097	115.683	182.781	14.505	82.102
680	3.710	5.657	9.368	67.229	115.053	182.282	13.519	81.005
681	3.717	5.626	9.343	67.352	114.425	181.777	12.667	82.203
682	3.723	5.595	9.319	67.468	113.791	181.259	11.790	82.728
683	3.729	5.564	9.293	67.576	113.147	180.723	10.921	82.682
684	3.735	5.532	9.267	67.674	112.514	180.188	10.036	82.576
685	3.740	5.501	9.241	67.765	111.884	179.649	9.201	81.883
686	3.744	5.471	9.215	67.849	111.255	179.104	8.414	80.083
687	3.749	5.441	9.189	67.924	110.652	178.576	7.664	78.654
688	3.751	5.420	9.171	67.972	110.224	178.196	7.106	80.671
689	3.754	5.395	9.149	68.025	109.715	177.739	6.530	79.833
690	3.757	5.370	9.127	68.073	109.206	177.279	5.992	80.411
691	3.759	5.344	9.103	68.121	108.672	176.793	5.501	81.900
692	3.762	5.316	9.077	68.165	108.103	176.268	5.038	81.214
693	3.764	5.287	9.051	68.207	107.523	175.730	4.608	80.539
694	3.766	5.259	9.025	68.245	106.951	175.197	4.198	80.475
695	3.768	5.231	8.999	68.281	106.384	174.665	3.846	80.815
696	3.770	5.202	8.973	68.314	105.804	174.118	3.511	81.148
697	3.772	5.174	8.946	68.344	105.220	173.564	3.188	82.358
698	3.773	5.143	8.916	68.373	104.591	172.964	2.895	82.169
699	3.775	5.112	8.887	68.399	103.973	172.372	2.616	81.227
700	3.776	5.083	8.859	68.421	103.376	171.797	2.368	80.527
701	3.777	5.054	8.831	68.442	102.789	171.231	2.167	80.607
702	3.778	5.026	8.804	68.461	102.205	170.666	1.989	80.703
703	3.779	4.997	8.776	68.478	101.620	170.098	1.812	81.751
704	3.780	4.967	8.747	68.494	101.021	169.515	1.654	83.504
705	3.781	4.936	8.717	68.508	100.393	168.901	1.501	82.638
706	3.782	4.906	8.687	68.521	99.765	168.286	1.346	80.787
707	3.782	4.876	8.658	68.533	99.156	167.689	1.220	80.736
708	3.783	4.846	8.628	68.544	98.545	167.089	1.120	80.784
709	3.783	4.816	8.599	68.554	97.939	166.493	1.033	79.175
710	3.784	4.786	8.570	68.563	97.339	165.902	0.936	79.212
711	3.784	4.756	8.541	68.571	96.733	165.304	0.859	83.503
712	3.785	4.725	8.510	68.579	96.098	164.677	0.788	83.214
713	3.785	4.694	8.479	68.586	95.464	164.050	0.717	81.897
714	3.786	4.664	8.449	68.592	94.851	163.443	0.648	80.709
715	3.786	4.634	8.420	68.597	94.240	162.838	0.590	80.153
716	3.786	4.605	8.391	68.603	93.653	162.256	0.546	82.064
717	3.786	4.575	8.362	68.608	93.046	161.654	0.507	83.496
718	3.787	4.548	8.335	68.612	92.503	161.115	0.465	84.136
719	3.787	4.523	8.310	68.616	91.994	160.610	0.426	84.692
720	3.787	4.501	8.288	68.618	91.533	160.151	0.388	83.459
721	3.787	4.477	8.264	68.621	91.047	159.668	0.351	83.008
722	3.787	4.451	8.238	68.624	90.515	159.138	0.323	82.290
723	3.787	4.421	8.208	68.626	89.912	158.538	0.295	81.882
724	3.788	4.394	8.181	68.629	89.359	157.988	0.274	83.807
725	3.788	4.368	8.156	68.632	88.834	157.466	0.253	85.147
726	3.788	4.342	8.130	68.633	88.309	156.942	0.233	85.440
727	3.788	4.315	8.103	68.634	87.760	156.394	0.214	85.645
728	3.788	4.288	8.076	68.636	87.207	155.842	0.193	84.165
729	3.788	4.262	8.050	68.637	86.684	155.321	0.177	83.507
