Wavelength (nm) 	 Efficiency Div Wav 1 (%) 	 Efficiency Div Wav 2 (%) 	 Efficiency Div Wav total (%) 	 Jsc Div Wav 1 (A m^-2) 	 Jsc Div Wav 2 (A m^-2) 	 Jsc Div Wav total (A m^-2) 	 EQE Curve 1 (%) 	 EQE Curve 2 (%) 	Jsc 1 correction factor: 0.13134985171721028	Jsc 2 correction factor: 0.12112841760658835
400	0.000	7.235	7.235	0.000	236.729	236.729	11.562	10.421
401	0.002	7.234	7.236	0.041	236.695	236.735	12.501	11.198
402	0.005	7.233	7.237	0.087	236.656	236.743	12.457	11.252
403	0.007	7.231	7.239	0.135	236.616	236.751	12.445	11.118
404	0.010	7.230	7.240	0.183	236.577	236.760	12.315	10.934
405	0.013	7.229	7.242	0.230	236.538	236.768	12.395	11.031
406	0.015	7.228	7.243	0.277	236.500	236.777	12.285	11.121
407	0.018	7.227	7.244	0.323	236.462	236.785	12.613	11.520
408	0.020	7.225	7.246	0.369	236.423	236.792	12.719	11.689
409	0.023	7.224	7.247	0.418	236.382	236.800	12.726	11.936
410	0.026	7.223	7.249	0.470	236.337	236.808	12.815	11.984
411	0.028	7.222	7.250	0.515	236.299	236.813	12.862	12.091
412	0.031	7.220	7.252	0.566	236.255	236.821	12.899	12.294
413	0.034	7.219	7.253	0.620	236.206	236.826	12.759	12.286
414	0.037	7.217	7.254	0.673	236.160	236.833	12.997	12.373
415	0.040	7.216	7.256	0.725	236.114	236.839	12.881	12.543
416	0.043	7.214	7.257	0.779	236.066	236.845	13.102	12.745
417	0.046	7.213	7.259	0.835	236.015	236.850	13.272	13.098
418	0.049	7.211	7.261	0.892	235.964	236.856	13.589	12.912
419	0.052	7.210	7.262	0.947	235.916	236.863	13.613	13.023
420	0.055	7.208	7.264	1.005	235.865	236.870	13.375	12.797
421	0.058	7.207	7.265	1.057	235.819	236.876	13.366	12.873
422	0.062	7.205	7.267	1.118	235.766	236.883	13.586	13.136
423	0.065	7.204	7.269	1.178	235.712	236.890	13.738	13.238
424	0.068	7.202	7.270	1.237	235.659	236.896	13.738	13.215
425	0.072	7.200	7.272	1.296	235.607	236.903	13.556	13.106
426	0.075	7.199	7.274	1.357	235.552	236.909	13.906	13.488
427	0.078	7.197	7.275	1.417	235.498	236.915	14.082	13.509
428	0.081	7.195	7.277	1.476	235.445	236.921	14.032	13.529
429	0.085	7.194	7.279	1.537	235.391	236.928	13.719	13.177
430	0.088	7.192	7.280	1.592	235.343	236.935	13.922	13.420
431	0.090	7.191	7.281	1.637	235.303	236.939	14.528	14.214
432	0.093	7.190	7.283	1.679	235.264	236.943	14.560	14.112
433	0.097	7.188	7.285	1.750	235.201	236.951	14.586	14.148
434	0.100	7.186	7.286	1.815	235.142	236.957	14.557	14.036
435	0.104	7.185	7.288	1.877	235.087	236.964	14.692	14.361
436	0.107	7.183	7.290	1.945	235.025	236.971	14.693	14.384
437	0.111	7.181	7.292	2.020	234.958	236.978	14.521	14.156
438	0.116	7.179	7.294	2.096	234.890	236.986	15.037	14.590
439	0.120	7.177	7.296	2.166	234.828	236.994	15.441	14.996
440	0.123	7.175	7.298	2.234	234.766	237.001	15.297	15.210
441	0.128	7.173	7.300	2.313	234.695	237.008	15.328	14.774
442	0.132	7.170	7.302	2.391	234.626	237.016	15.729	15.075
443	0.137	7.168	7.305	2.476	234.551	237.027	16.234	15.671
444	0.142	7.166	7.307	2.565	234.471	237.036	16.095	15.582
445	0.146	7.163	7.310	2.652	234.393	237.045	16.159	15.434
446	0.151	7.161	7.312	2.744	234.313	237.057	16.555	15.747
447	0.156	7.159	7.315	2.828	234.239	237.067	16.584	15.879
448	0.161	7.156	7.318	2.925	234.155	237.080	16.802	16.291
449	0.167	7.153	7.320	3.024	234.066	237.090	17.210	16.568
450	0.172	7.151	7.323	3.125	233.976	237.101	17.540	16.868
451	0.178	7.148	7.326	3.233	233.881	237.113	17.124	16.499
452	0.184	7.145	7.329	3.342	233.784	237.125	17.084	16.358
453	0.190	7.142	7.332	3.447	233.692	237.138	17.706	17.054
454	0.196	7.139	7.335	3.548	233.602	237.150	18.258	17.666
455	0.202	7.136	7.338	3.659	233.503	237.162	18.840	18.334
456	0.208	7.133	7.341	3.775	233.400	237.175	19.334	18.782
457	0.215	7.130	7.345	3.897	233.291	237.188	19.504	18.927
458	0.222	7.126	7.348	4.022	233.179	237.201	19.224	18.843
459	0.229	7.123	7.352	4.143	233.070	237.213	19.260	19.011
460	0.235	7.120	7.355	4.264	232.960	237.224	19.688	19.269
461	0.242	7.116	7.358	4.386	232.850	237.236	20.328	19.750
462	0.249	7.113	7.362	4.518	232.731	237.250	20.332	19.645
463	0.257	7.109	7.366	4.652	232.613	237.265	20.584	19.985
464	0.264	7.105	7.370	4.789	232.490	237.279	20.753	20.150
465	0.272	7.102	7.373	4.923	232.370	237.293	20.422	19.956
466	0.279	7.098	7.377	5.053	232.253	237.306	21.152	20.273
467	0.286	7.094	7.381	5.191	232.130	237.321	21.353	20.655
468	0.294	7.091	7.384	5.324	232.012	237.335	21.370	20.751
469	0.301	7.087	7.388	5.463	231.887	237.350	21.790	21.019
470	0.309	7.083	7.392	5.606	231.760	237.366	22.688	21.719
471	0.317	7.079	7.396	5.749	231.633	237.382	22.479	21.411
472	0.325	7.075	7.400	5.895	231.504	237.399	21.750	20.650
473	0.334	7.071	7.405	6.043	231.373	237.417	23.342	22.252
474	0.342	7.067	7.409	6.197	231.239	237.436	23.878	23.050
475	0.351	7.063	7.413	6.356	231.097	237.453	23.233	22.166
476	0.360	7.058	7.418	6.518	230.956	237.473	23.282	22.259
477	0.368	7.054	7.422	6.674	230.817	237.491	24.364	23.121
478	0.377	7.050	7.427	6.839	230.673	237.513	24.203	22.959
479	0.387	7.045	7.432	7.009	230.526	237.534	24.661	23.152
480	0.396	7.041	7.437	7.180	230.378	237.557	24.003	23.004
481	0.406	7.036	7.442	7.348	230.229	237.576	23.919	22.464
482	0.415	7.032	7.446	7.516	230.083	237.599	24.744	23.210
483	0.425	7.027	7.452	7.692	229.932	237.624	25.162	23.939
484	0.434	7.022	7.457	7.868	229.777	237.645	25.491	23.911
485	0.444	7.018	7.462	8.044	229.624	237.668	26.253	24.354
486	0.454	7.013	7.467	8.226	229.468	237.695	26.191	24.565
487	0.462	7.009	7.471	8.374	229.341	237.714	26.770	25.264
488	0.471	7.004	7.476	8.542	229.194	237.736	28.270	26.276
489	0.482	6.999	7.482	8.736	229.027	237.763	29.497	26.960
490	0.493	6.994	7.487	8.927	228.866	237.793	29.705	27.247
491	0.505	6.989	7.493	9.142	228.683	237.825	29.855	27.751
492	0.516	6.983	7.499	9.349	228.505	237.855	30.286	28.064
493	0.527	6.978	7.505	9.552	228.332	237.884	30.998	28.371
494	0.539	6.972	7.512	9.774	228.144	237.918	30.874	28.488
495	0.551	6.967	7.518	9.990	227.960	237.951	31.688	29.319
496	0.564	6.961	7.525	10.227	227.759	237.986	31.956	29.516
497	0.577	6.955	7.532	10.454	227.566	238.021	31.307	28.621
498	0.589	6.949	7.538	10.681	227.375	238.056	31.058	28.533
499	0.602	6.943	7.545	10.901	227.188	238.089	32.715	30.312
500	0.614	6.937	7.551	11.132	226.991	238.123	33.696	31.042
501	0.628	6.931	7.558	11.371	226.788	238.158	32.989	30.651
502	0.640	6.925	7.565	11.598	226.593	238.191	33.469	31.156
503	0.653	6.919	7.572	11.829	226.394	238.223	34.851	32.698
504	0.667	6.912	7.579	12.082	226.176	238.257	35.075	32.800
505	0.680	6.906	7.586	12.319	225.971	238.290	32.703	30.795
506	0.693	6.900	7.593	12.557	225.764	238.321	33.796	31.733
507	0.707	6.893	7.600	12.814	225.541	238.356	34.404	32.255
508	0.721	6.886	7.607	13.064	225.326	238.390	32.768	30.647
509	0.734	6.880	7.614	13.297	225.124	238.421	32.240	30.423
510	0.747	6.874	7.621	13.538	224.914	238.452	32.009	30.588
511	0.760	6.867	7.627	13.772	224.708	238.480	31.381	29.677
512	0.773	6.861	7.634	14.006	224.503	238.509	33.680	32.281
513	0.787	6.854	7.641	14.263	224.275	238.539	34.274	33.308
514	0.801	6.847	7.648	14.512	224.054	238.565	33.211	32.592
515	0.814	6.841	7.655	14.747	223.840	238.587	35.416	34.579
516	0.828	6.834	7.662	15.005	223.608	238.613	35.064	35.125
517	0.842	6.826	7.669	15.264	223.369	238.633	35.053	35.226
518	0.854	6.820	7.675	15.476	223.173	238.649	36.696	37.230
519	0.868	6.813	7.681	15.729	222.936	238.665	35.892	36.216
520	0.881	6.806	7.688	15.970	222.712	238.681	36.079	36.776
521	0.896	6.799	7.695	16.234	222.463	238.697	35.889	36.838
522	0.911	6.791	7.702	16.501	222.210	238.712	35.366	35.909
523	0.926	6.783	7.709	16.771	221.957	238.728	37.256	37.676
524	0.940	6.776	7.716	17.039	221.706	238.745	36.779	37.659
525	0.956	6.767	7.724	17.325	221.436	238.761	35.583	36.756
526	0.971	6.759	7.731	17.600	221.174	238.774	36.461	38.079
527	0.986	6.751	7.738	17.874	220.910	238.784	37.026	38.884
528	1.000	6.744	7.744	18.118	220.674	238.793	37.276	39.712
529	1.015	6.736	7.751	18.399	220.398	238.797	36.874	39.380
530	1.032	6.727	7.758	18.691	220.111	238.802	36.808	39.702
531	1.047	6.718	7.765	18.972	219.831	238.803	36.747	39.486
532	1.063	6.709	7.773	19.268	219.538	238.806	36.789	39.997
533	1.080	6.700	7.780	19.561	219.245	238.805	36.752	40.401
534	1.094	6.692	7.786	19.822	218.980	238.802	37.585	40.644
535	1.110	6.684	7.793	20.110	218.694	238.803	38.398	41.847
536	1.126	6.674	7.801	20.408	218.395	238.802	36.565	40.862
537	1.143	6.665	7.808	20.705	218.088	238.793	37.391	41.868
538	1.158	6.656	7.814	20.986	217.799	238.784	38.029	43.223
539	1.175	6.647	7.821	21.287	217.482	238.769	37.922	43.281
540	1.191	6.637	7.828	21.581	217.172	238.753	37.943	43.895
541	1.207	6.628	7.834	21.864	216.870	238.734	38.373	44.748
542	1.222	6.619	7.841	22.142	216.572	238.713	40.105	45.846
543	1.239	6.609	7.848	22.457	216.238	238.695	40.281	47.120
544	1.257	6.598	7.855	22.769	215.901	238.670	39.310	47.268
545	1.274	6.587	7.862	23.086	215.549	238.635	38.712	46.087
546	1.291	6.577	7.868	23.392	215.212	238.605	38.726	46.843
547	1.308	6.567	7.875	23.694	214.876	238.570	38.443	46.944
548	1.324	6.556	7.881	23.999	214.532	238.531	39.178	47.520
549	1.341	6.546	7.887	24.301	214.194	238.495	39.591	48.774
550	1.359	6.535	7.894	24.619	213.833	238.452	39.898	49.198
551	1.376	6.524	7.900	24.935	213.473	238.409	40.774	50.096
552	1.394	6.513	7.907	25.259	213.106	238.365	39.976	50.089
553	1.412	6.501	7.913	25.583	212.731	238.314	40.472	51.195
554	1.430	6.490	7.919	25.904	212.357	238.261	39.088	49.637
555	1.447	6.479	7.926	26.220	211.987	238.207	38.617	49.533
556	1.464	6.467	7.932	26.535	211.614	238.149	37.967	49.416
557	1.481	6.456	7.937	26.841	211.246	238.087	37.957	49.701
558	1.498	6.445	7.943	27.140	210.886	238.025	39.492	51.483
559	1.515	6.433	7.949	27.457	210.504	237.962	39.284	51.627
560	1.532	6.422	7.954	27.757	210.141	237.898	39.870	52.230
561	1.549	6.411	7.960	28.067	209.767	237.833	40.392	52.569
562	1.567	6.398	7.966	28.400	209.366	237.766	38.902	51.352
563	1.584	6.387	7.971	28.707	208.994	237.700	38.447	51.817
564	1.602	6.375	7.977	29.020	208.604	237.624	39.384	53.472
565	1.619	6.363	7.982	29.338	208.206	237.545	40.117	53.330
566	1.637	6.351	7.988	29.665	207.807	237.472	41.683	56.298
567	1.655	6.339	7.994	29.986	207.408	237.394	42.510	56.777
568	1.674	6.325	8.000	30.335	206.977	237.312	41.817	56.837
569	1.693	6.312	8.005	30.678	206.548	237.226	41.686	55.911
570	1.711	6.300	8.011	31.009	206.138	237.147	40.598	54.858
571	1.729	6.288	8.017	31.332	205.734	237.066	41.408	56.318
572	1.747	6.275	8.022	31.653	205.332	236.985	41.315	56.193
573	1.765	6.262	8.028	31.990	204.908	236.898	42.736	57.835
574	1.785	6.249	8.034	32.344	204.468	236.812	44.429	60.139
575	1.805	6.235	8.040	32.709	204.013	236.722	43.887	59.116
576	1.825	6.222	8.046	33.062	203.574	236.637	43.371	58.623
577	1.844	6.208	8.052	33.409	203.142	236.551	42.618	57.829
578	1.863	6.195	8.058	33.761	202.702	236.463	40.419	54.964
579	1.881	6.183	8.063	34.083	202.299	236.382	40.714	56.047
580	1.899	6.170	8.069	34.412	201.881	236.293	41.322	56.497
581	1.918	6.157	8.075	34.755	201.449	236.204	42.595	58.229
582	1.938	6.143	8.080	35.109	201.003	236.111	44.163	60.082
583	1.958	6.129	8.087	35.482	200.535	236.017	44.027	59.353
584	1.979	6.114	8.093	35.860	200.065	235.925	44.041	59.545
585	2.000	6.100	8.100	36.235	199.597	235.832	42.919	58.413
586	2.020	6.086	8.106	36.599	199.139	235.738	42.310	57.892
587	2.039	6.072	8.112	36.951	198.694	235.646	42.602	58.390
588	2.059	6.058	8.118	37.314	198.235	235.549	43.378	59.548
589	2.079	6.044	8.124	37.676	197.777	235.454	44.198	60.426
590	2.097	6.032	8.129	37.997	197.374	235.371	45.345	61.886
591	2.116	6.019	8.135	38.345	196.935	235.280	42.999	57.580
592	2.136	6.005	8.141	38.701	196.497	235.198	43.413	58.002
593	2.155	5.992	8.147	39.052	196.065	235.116	43.776	59.017
594	2.175	5.978	8.153	39.412	195.616	235.028	43.279	58.268
595	2.195	5.965	8.159	39.766	195.177	234.943	42.880	57.839
596	2.214	5.952	8.165	40.114	194.743	234.857	42.544	57.025
597	2.234	5.938	8.172	40.472	194.301	234.772	42.563	56.865
598	2.253	5.925	8.178	40.830	193.860	234.690	42.851	57.668
599	2.273	5.911	8.184	41.186	193.419	234.605	43.323	58.581
600	2.293	5.897	8.190	41.546	192.970	234.516	43.792	59.160
601	2.313	5.883	8.197	41.916	192.508	234.425	43.963	59.748
602	2.334	5.869	8.203	42.283	192.049	234.332	43.675	59.256
603	2.353	5.856	8.209	42.643	191.600	234.242	42.971	58.655
604	2.373	5.842	8.215	43.005	191.143	234.148	43.480	59.322
605	2.394	5.827	8.221	43.378	190.674	234.053	43.586	59.501
606	2.415	5.813	8.227	43.753	190.203	233.956	43.670	59.692
607	2.435	5.798	8.234	44.128	189.729	233.858	42.818	58.280
608	2.456	5.784	8.240	44.497	189.267	233.764	42.204	57.002
609	2.476	5.770	8.246	44.861	188.813	233.674	41.416	55.897
610	2.495	5.757	8.252	45.217	188.370	233.588	40.801	54.792
611	2.515	5.744	8.258	45.565	187.939	233.504	41.190	55.726
612	2.534	5.730	8.264	45.917	187.501	233.418	42.505	58.053
613	2.554	5.716	8.271	46.286	187.036	233.322	44.049	60.672
614	2.575	5.701	8.277	46.663	186.556	233.219	45.110	62.377
615	2.596	5.687	8.283	47.039	186.077	233.116	44.421	61.311
616	2.617	5.672	8.289	47.424	185.588	233.012	43.096	59.381
617	2.637	5.658	8.295	47.786	185.127	232.913	41.737	57.209
618	2.656	5.644	8.301	48.133	184.688	232.821	40.376	55.005
619	2.676	5.631	8.307	48.483	184.250	232.732	39.638	53.735
620	2.695	5.618	8.312	48.828	183.817	232.645	39.403	53.354
621	2.714	5.605	8.318	49.172	183.387	232.559	40.646	55.503
622	2.734	5.591	8.324	49.531	182.937	232.467	43.058	59.364
623	2.754	5.577	8.330	49.897	182.471	232.369	44.563	61.908
624	2.775	5.562	8.336	50.274	181.989	232.264	44.691	62.221
625	2.795	5.547	8.342	50.652	181.504	232.156	43.614	60.956
626	2.816	5.533	8.348	51.019	181.031	232.050	42.045	58.598
627	2.835	5.519	8.354	51.374	180.576	231.949	41.477	57.640
628	2.855	5.505	8.360	51.732	180.117	231.849	41.149	57.064
629	2.874	5.491	8.365	52.068	179.687	231.755	41.541	57.393
630	2.893	5.478	8.371	52.423	179.235	231.658	41.868	57.925
631	2.913	5.464	8.376	52.775	178.786	231.561	41.957	58.261
632	2.932	5.450	8.382	53.134	178.326	231.460	42.608	59.062
633	2.952	5.436	8.388	53.484	177.878	231.363	42.482	59.361
634	2.972	5.421	8.394	53.857	177.397	231.255	42.532	59.788
635	2.993	5.407	8.400	54.226	176.920	231.147	42.639	60.186
636	3.013	5.392	8.405	54.602	176.431	231.033	42.563	60.070
637	3.034	5.377	8.411	54.969	175.954	230.922	42.330	60.177
638	3.054	5.362	8.417	55.346	175.459	230.805	41.927	59.884
639	3.075	5.347	8.422	55.723	174.963	230.685	41.269	59.295
640	3.096	5.332	8.428	56.092	174.475	230.566	41.143	58.986
641	3.116	5.318	8.433	56.454	173.995	230.449	40.961	58.956
642	3.136	5.303	8.438	56.815	173.515	230.331	41.515	59.819
643	3.156	5.288	8.444	57.182	173.027	230.209	41.459	60.222
644	3.176	5.273	8.449	57.552	172.532	230.084	41.341	60.791
645	3.197	5.257	8.454	57.921	172.030	229.952	40.865	60.659
646	3.217	5.242	8.459	58.290	171.526	229.817	40.084	59.413
647	3.236	5.227	8.464	58.641	171.047	229.688	39.347	59.040
648	3.255	5.213	8.468	58.984	170.573	229.557	38.752	58.330
649	3.274	5.199	8.472	59.319	170.108	229.427	38.676	58.834
650	3.292	5.185	8.476	59.643	169.652	229.296	39.053	59.666
651	3.310	5.171	8.480	59.974	169.186	229.160	39.177	60.976
652	3.329	5.155	8.484	60.328	168.679	229.006	39.034	61.626
653	3.348	5.140	8.488	60.668	168.184	228.852	38.223	60.881
654	3.367	5.124	8.492	61.012	167.679	228.691	37.180	60.439
655	3.385	5.109	8.495	61.342	167.185	228.527	36.312	59.754
656	3.402	5.095	8.497	61.649	166.719	228.368	35.552	58.819
657	3.417	5.083	8.500	61.913	166.315	228.228	35.378	59.675
658	3.432	5.070	8.502	62.189	165.887	228.075	35.040	60.214
659	3.449	5.055	8.504	62.494	165.403	227.897	34.592	60.644
660	3.466	5.040	8.506	62.798	164.911	227.710	34.192	61.719
661	3.482	5.024	8.507	63.102	164.406	227.508	33.079	60.910
662	3.499	5.009	8.508	63.393	163.911	227.304	31.793	60.088
663	3.514	4.994	8.508	63.672	163.425	227.097	30.710	59.714
664	3.529	4.980	8.509	63.941	162.942	226.883	29.847	59.039
665	3.543	4.965	8.508	64.205	162.460	226.665	28.996	59.054
666	3.558	4.950	8.508	64.469	161.964	226.434	28.526	60.038
667	3.572	4.934	8.507	64.729	161.461	226.190	27.889	61.006
668	3.586	4.919	8.505	64.981	160.952	225.933	27.003	61.450
669	3.600	4.903	8.503	65.226	160.438	225.664	25.823	61.582
670	3.613	4.887	8.500	65.463	159.915	225.378	24.583	61.247
671	3.625	4.871	8.497	65.688	159.398	225.086	23.095	59.610
672	3.637	4.856	8.493	65.898	158.897	224.796	21.878	59.157
673	3.648	4.841	8.489	66.097	158.404	224.501	20.958	59.666
674	3.658	4.826	8.484	66.288	157.902	224.190	19.919	59.238
675	3.668	4.811	8.479	66.468	157.406	223.875	19.025	60.461
676	3.678	4.795	8.473	66.639	156.904	223.543	17.978	61.137
677	3.687	4.779	8.466	66.803	156.386	223.190	16.712	60.327
678	3.695	4.764	8.459	66.956	155.880	222.836	15.590	60.093
679	3.703	4.748	8.451	67.097	155.375	222.472	14.505	59.288
680	3.710	4.733	8.444	67.229	154.880	222.108	13.519	58.695
681	3.717	4.718	8.435	67.352	154.384	221.736	12.667	59.409
682	3.723	4.703	8.426	67.468	153.886	221.354	11.790	59.961
683	3.729	4.687	8.417	67.576	153.379	220.954	10.921	60.052
684	3.735	4.672	8.407	67.674	152.879	220.553	10.036	60.070
685	3.740	4.657	8.397	67.765	152.381	220.145	9.201	59.942
686	3.744	4.642	8.386	67.849	151.879	219.728	8.414	58.592
687	3.749	4.627	8.376	67.924	151.401	219.324	7.664	57.742
688	3.751	4.617	8.368	67.972	151.059	219.031	7.106	58.929
689	3.754	4.604	8.358	68.025	150.656	218.681	6.530	58.590
690	3.757	4.592	8.349	68.073	150.250	218.323	5.992	58.786
691	3.759	4.579	8.338	68.121	149.826	217.947	5.501	60.190
692	3.762	4.565	8.327	68.165	149.371	217.536	5.038	59.930
693	3.764	4.551	8.315	68.207	148.904	217.112	4.608	59.694
694	3.766	4.537	8.303	68.245	148.444	216.690	4.198	59.370
695	3.768	4.523	8.291	68.281	147.990	216.271	3.846	59.808
696	3.770	4.509	8.279	68.314	147.524	215.837	3.511	60.255
697	3.772	4.494	8.266	68.344	147.052	215.396	3.188	60.849
698	3.773	4.479	8.252	68.373	146.547	214.920	2.895	61.380
699	3.775	4.463	8.238	68.399	146.045	214.444	2.616	60.821
700	3.776	4.448	8.225	68.421	145.559	213.980	2.368	60.395
701	3.777	4.434	8.211	68.442	145.080	213.523	2.167	60.458
702	3.778	4.419	8.198	68.461	144.604	213.065	1.989	60.278
703	3.779	4.405	8.184	68.478	144.129	212.607	1.812	60.892
704	3.780	4.390	8.170	68.494	143.645	212.139	1.654	62.144
705	3.781	4.374	8.155	68.508	143.136	211.644	1.501	61.851
706	3.782	4.359	8.140	68.521	142.625	211.146	1.346	60.687
707	3.782	4.344	8.126	68.533	142.127	210.660	1.220	60.670
708	3.783	4.328	8.111	68.544	141.628	210.172	1.120	60.609
709	3.783	4.313	8.097	68.554	141.134	209.688	1.033	59.943
710	3.784	4.298	8.082	68.563	140.640	209.203	0.936	59.751
711	3.784	4.283	8.067	68.571	140.142	208.713	0.859	62.706
712	3.785	4.267	8.052	68.579	139.624	208.203	0.788	62.764
713	3.785	4.251	8.036	68.586	139.104	207.690	0.717	61.894
714	3.786	4.236	8.021	68.592	138.600	207.192	0.648	61.130
715	3.786	4.220	8.006	68.597	138.097	206.695	0.590	60.758
716	3.786	4.206	7.992	68.603	137.614	206.217	0.546	62.115
717	3.786	4.190	7.977	68.608	137.115	205.723	0.507	63.319
718	3.787	4.177	7.963	68.612	136.667	205.279	0.465	63.965
719	3.787	4.164	7.951	68.616	136.245	204.861	0.426	64.469
720	3.787	4.152	7.939	68.618	135.864	204.482	0.388	63.744
721	3.787	4.140	7.927	68.621	135.460	204.081	0.351	63.459
722	3.787	4.126	7.914	68.624	135.018	203.642	0.323	62.843
723	3.787	4.111	7.898	68.626	134.518	203.144	0.295	63.009
724	3.788	4.097	7.884	68.629	134.055	202.684	0.274	64.331
725	3.788	4.084	7.871	68.632	133.617	202.248	0.253	65.751
726	3.788	4.070	7.858	68.633	133.176	201.809	0.233	66.219
727	3.788	4.056	7.844	68.634	132.713	201.347	0.214	66.104
728	3.788	4.042	7.830	68.636	132.248	200.884	0.193	65.227
729	3.788	4.028	7.816	68.637	131.807	200.444	0.177	64.770
730	3.788	4.015	7.803	68.638	131.366	200.004	0.163	64.744
731	3.788	4.000	7.788	68.639	130.890	199.530	0.151	65.542
732	3.788	3.986	7.774	68.641	130.434	199.074	0.140	66.789
733	3.788	3.971	7.759	68.642	129.932	198.574	0.128	67.071
734	3.788	3.955	7.743	68.643	129.409	198.052	0.117	67.194
735	3.788	3.938	7.727	68.645	128.865	197.510	0.107	66.060
