Wavelength (nm) 	 Efficiency Div Wav 1 (%) 	 Efficiency Div Wav 2 (%) 	 Efficiency Div Wav total (%) 	 Jsc Div Wav 1 (A m^-2) 	 Jsc Div Wav 2 (A m^-2) 	 Jsc Div Wav total (A m^-2) 	 EQE Curve 1 (%) 	 EQE Curve 2 (%) 	Jsc 1 correction factor: 0.13134985171721028	Jsc 2 correction factor: 0.12747424180101746
400	0.000	7.310	7.310	0.000	254.069	254.069	11.562	14.124
401	0.002	7.308	7.310	0.041	254.020	254.061	12.501	15.055
402	0.005	7.307	7.311	0.087	253.966	254.052	12.457	15.145
403	0.007	7.305	7.312	0.135	253.908	254.044	12.445	14.847
404	0.010	7.303	7.313	0.183	253.853	254.036	12.315	14.425
405	0.013	7.302	7.314	0.230	253.800	254.030	12.395	14.494
406	0.015	7.300	7.316	0.277	253.746	254.024	12.285	14.630
407	0.018	7.299	7.317	0.323	253.694	254.017	12.613	15.044
408	0.020	7.297	7.318	0.369	253.641	254.010	12.719	15.178
409	0.023	7.296	7.319	0.418	253.585	254.002	12.726	15.343
410	0.026	7.294	7.320	0.470	253.523	253.994	12.815	15.515
411	0.028	7.292	7.321	0.515	253.470	253.985	12.862	15.474
412	0.031	7.291	7.322	0.566	253.410	253.976	12.899	15.576
413	0.034	7.289	7.323	0.620	253.346	253.966	12.759	15.643
414	0.037	7.287	7.324	0.673	253.285	253.957	12.997	15.736
415	0.040	7.285	7.325	0.725	253.224	253.949	12.881	15.553
416	0.043	7.283	7.326	0.779	253.160	253.939	13.102	15.812
417	0.046	7.281	7.328	0.835	253.094	253.929	13.272	16.477
418	0.049	7.280	7.329	0.892	253.026	253.918	13.589	16.057
419	0.052	7.278	7.330	0.947	252.962	253.909	13.613	16.111
420	0.055	7.276	7.331	1.005	252.896	253.901	13.375	15.788
421	0.058	7.274	7.332	1.057	252.836	253.894	13.366	15.699
422	0.062	7.272	7.334	1.118	252.767	253.885	13.586	15.702
423	0.065	7.270	7.335	1.178	252.700	253.878	13.738	16.068
424	0.068	7.268	7.336	1.237	252.632	253.870	13.738	16.108
425	0.072	7.266	7.338	1.296	252.565	253.861	13.556	15.623
426	0.075	7.264	7.339	1.357	252.497	253.854	13.906	15.672
427	0.078	7.262	7.341	1.417	252.431	253.848	14.082	16.151
428	0.081	7.261	7.342	1.476	252.365	253.841	14.032	16.011
429	0.085	7.259	7.343	1.537	252.298	253.835	13.719	15.799
430	0.088	7.257	7.345	1.592	252.237	253.829	13.922	15.785
431	0.090	7.255	7.346	1.637	252.189	253.825	14.528	16.189
432	0.093	7.254	7.347	1.679	252.143	253.821	14.560	16.301
433	0.097	7.252	7.348	1.750	252.066	253.816	14.586	16.388
434	0.100	7.250	7.350	1.815	251.994	253.809	14.557	15.962
435	0.104	7.248	7.352	1.877	251.929	253.806	14.692	16.546
436	0.107	7.246	7.353	1.945	251.853	253.799	14.693	16.434
437	0.111	7.243	7.355	2.020	251.772	253.792	14.521	16.161
438	0.116	7.241	7.357	2.096	251.690	253.787	15.037	16.410
439	0.120	7.239	7.359	2.166	251.616	253.782	15.441	17.112
440	0.123	7.237	7.360	2.234	251.542	253.777	15.297	17.162
441	0.128	7.234	7.362	2.313	251.457	253.770	15.328	16.983
442	0.132	7.232	7.364	2.391	251.373	253.763	15.729	17.170
443	0.137	7.229	7.366	2.476	251.282	253.758	16.234	17.775
444	0.142	7.227	7.368	2.565	251.187	253.752	16.095	17.663
445	0.146	7.224	7.370	2.652	251.094	253.746	16.159	17.732
446	0.151	7.221	7.373	2.744	250.997	253.741	16.555	18.399
447	0.156	7.219	7.375	2.828	250.906	253.734	16.584	18.322
448	0.161	7.216	7.377	2.925	250.803	253.728	16.802	18.940
449	0.167	7.212	7.379	3.024	250.695	253.718	17.210	18.766
450	0.172	7.209	7.382	3.125	250.588	253.712	17.540	19.271
451	0.178	7.206	7.384	3.233	250.473	253.705	17.124	18.446
452	0.184	7.203	7.387	3.342	250.358	253.700	17.084	18.078
453	0.190	7.200	7.390	3.447	250.251	253.698	17.706	18.444
454	0.196	7.197	7.393	3.548	250.149	253.697	18.258	19.112
455	0.202	7.194	7.395	3.659	250.036	253.695	18.840	20.042
456	0.208	7.190	7.398	3.775	249.917	253.692	19.334	20.301
457	0.215	7.187	7.402	3.897	249.792	253.689	19.504	20.463
458	0.222	7.183	7.405	4.022	249.665	253.687	19.224	20.584
459	0.229	7.179	7.408	4.143	249.540	253.683	19.260	20.445
460	0.235	7.176	7.411	4.264	249.415	253.678	19.688	20.682
461	0.242	7.172	7.414	4.386	249.290	253.676	20.328	21.425
462	0.249	7.168	7.418	4.518	249.155	253.673	20.332	21.399
463	0.257	7.164	7.421	4.652	249.018	253.671	20.584	21.380
464	0.264	7.160	7.425	4.789	248.881	253.670	20.753	21.260
465	0.272	7.156	7.428	4.923	248.748	253.671	20.422	21.364
466	0.279	7.153	7.432	5.053	248.617	253.670	21.152	21.183
467	0.286	7.149	7.435	5.191	248.483	253.674	21.353	21.459
468	0.294	7.145	7.439	5.324	248.353	253.677	21.370	21.711
469	0.301	7.141	7.443	5.463	248.215	253.678	21.790	21.895
470	0.309	7.137	7.447	5.606	248.076	253.682	22.688	22.971
471	0.317	7.133	7.450	5.749	247.935	253.684	22.479	22.531
472	0.325	7.129	7.454	5.895	247.793	253.688	21.750	21.031
473	0.334	7.125	7.458	6.043	247.653	253.697	23.342	22.875
474	0.342	7.121	7.463	6.197	247.508	253.705	23.878	23.900
475	0.351	7.116	7.467	6.356	247.352	253.708	23.233	22.638
476	0.360	7.112	7.472	6.518	247.199	253.717	23.282	22.541
477	0.368	7.108	7.476	6.674	247.053	253.727	24.364	23.739
478	0.377	7.103	7.481	6.839	246.897	253.737	24.203	23.781
479	0.387	7.099	7.485	7.009	246.735	253.744	24.661	23.696
480	0.396	7.094	7.490	7.180	246.577	253.757	24.003	23.180
481	0.406	7.089	7.495	7.348	246.419	253.767	23.919	22.580
482	0.415	7.085	7.500	7.516	246.265	253.781	24.744	23.328
483	0.425	7.080	7.505	7.692	246.104	253.796	25.162	23.931
484	0.434	7.076	7.510	7.868	245.941	253.809	25.491	24.346
485	0.444	7.071	7.515	8.044	245.778	253.822	26.253	24.505
486	0.454	7.066	7.520	8.226	245.614	253.840	26.191	24.638
487	0.462	7.062	7.525	8.374	245.480	253.853	26.770	24.976
488	0.471	7.058	7.529	8.542	245.327	253.868	28.270	26.674
489	0.482	7.053	7.535	8.736	245.148	253.884	29.497	27.885
490	0.493	7.048	7.541	8.927	244.974	253.900	29.705	28.083
491	0.505	7.042	7.547	9.142	244.776	253.918	29.855	28.322
492	0.516	7.037	7.553	9.349	244.585	253.934	30.286	28.380
493	0.527	7.031	7.559	9.552	244.401	253.953	30.998	29.602
494	0.539	7.026	7.565	9.774	244.196	253.970	30.874	29.844
495	0.551	7.020	7.571	9.990	243.993	253.984	31.688	29.850
496	0.564	7.013	7.578	10.227	243.778	254.005	31.956	30.152
497	0.577	7.007	7.584	10.454	243.570	254.024	31.307	28.771
498	0.589	7.002	7.591	10.681	243.367	254.049	31.058	29.297
499	0.602	6.996	7.597	10.901	243.166	254.067	32.715	30.999
500	0.614	6.990	7.604	11.132	242.953	254.085	33.696	32.230
501	0.628	6.983	7.611	11.371	242.731	254.102	32.989	31.734
502	0.640	6.977	7.617	11.598	242.518	254.117	33.469	32.613
503	0.653	6.971	7.624	11.829	242.299	254.129	34.851	33.950
504	0.667	6.964	7.631	12.082	242.061	254.142	35.075	34.705
505	0.680	6.958	7.637	12.319	241.833	254.152	32.703	31.746
506	0.693	6.951	7.644	12.557	241.608	254.165	33.796	33.066
507	0.707	6.944	7.651	12.814	241.364	254.178	34.404	34.531
508	0.721	6.937	7.658	13.064	241.120	254.184	32.768	32.139
509	0.734	6.931	7.664	13.297	240.898	254.195	32.240	30.570
510	0.747	6.924	7.671	13.538	240.676	254.215	32.009	31.070
511	0.760	6.918	7.678	13.772	240.456	254.228	31.381	30.260
512	0.773	6.912	7.685	14.006	240.237	254.243	33.680	32.365
513	0.787	6.905	7.692	14.263	239.997	254.260	34.274	33.566
514	0.801	6.898	7.699	14.512	239.761	254.273	33.211	32.551
515	0.814	6.891	7.705	14.747	239.538	254.285	35.416	34.451
516	0.828	6.884	7.713	15.005	239.293	254.299	35.064	34.793
517	0.842	6.877	7.720	15.264	239.045	254.309	35.053	35.271
518	0.854	6.871	7.725	15.476	238.838	254.314	36.696	38.280
519	0.868	6.864	7.732	15.729	238.582	254.311	35.892	36.939
520	0.881	6.857	7.738	15.970	238.341	254.311	36.079	37.002
521	0.896	6.850	7.745	16.234	238.079	254.312	35.889	37.522
522	0.911	6.842	7.752	16.501	237.807	254.309	35.366	37.553
523	0.926	6.834	7.759	16.771	237.529	254.300	37.256	38.657
524	0.940	6.826	7.766	17.039	237.259	254.298	36.779	38.141
525	0.956	6.818	7.774	17.325	236.971	254.296	35.583	36.664
526	0.971	6.810	7.781	17.600	236.695	254.295	36.461	37.880
527	0.986	6.802	7.788	17.874	236.419	254.293	37.026	39.017
528	1.000	6.795	7.794	18.118	236.169	254.287	37.276	40.270
529	1.015	6.786	7.802	18.399	235.875	254.274	36.874	39.745
530	1.032	6.777	7.809	18.691	235.570	254.261	36.808	40.614
531	1.047	6.769	7.816	18.972	235.269	254.241	36.747	40.737
532	1.063	6.760	7.823	19.268	234.952	254.219	36.789	40.866
533	1.080	6.750	7.830	19.561	234.637	254.197	36.752	41.535
534	1.094	6.742	7.836	19.822	234.350	254.172	37.585	41.383
535	1.110	6.733	7.843	20.110	234.043	254.152	38.398	42.371
536	1.126	6.724	7.850	20.408	233.724	254.132	36.565	41.122
537	1.143	6.715	7.858	20.705	233.400	254.105	37.391	42.528
538	1.158	6.706	7.864	20.986	233.090	254.076	38.029	44.236
539	1.175	6.696	7.871	21.287	232.750	254.037	37.922	45.109
540	1.191	6.686	7.877	21.581	232.410	253.991	37.943	45.826
541	1.207	6.677	7.884	21.864	232.077	253.942	38.373	47.303
542	1.222	6.667	7.889	22.142	231.746	253.887	40.105	50.286
543	1.239	6.656	7.896	22.457	231.362	253.819	40.281	49.921
544	1.257	6.645	7.902	22.769	230.986	253.755	39.310	49.630
545	1.274	6.634	7.908	23.086	230.597	253.683	38.712	47.868
546	1.291	6.624	7.915	23.392	230.230	253.622	38.726	48.078
547	1.308	6.613	7.921	23.694	229.865	253.560	38.443	49.392
548	1.324	6.602	7.927	23.999	229.486	253.484	39.178	50.047
549	1.341	6.591	7.933	24.301	229.111	253.412	39.591	51.606
550	1.359	6.580	7.939	24.619	228.709	253.328	39.898	52.627
551	1.376	6.568	7.944	24.935	228.305	253.241	40.774	53.051
552	1.394	6.557	7.951	25.259	227.896	253.154	39.976	52.534
553	1.412	6.545	7.957	25.583	227.482	253.065	40.472	53.692
554	1.430	6.533	7.962	25.904	227.070	252.973	39.088	51.448
555	1.447	6.521	7.968	26.220	226.666	252.886	38.617	51.588
556	1.464	6.509	7.974	26.535	226.257	252.792	37.967	51.555
557	1.481	6.498	7.979	26.841	225.852	252.694	37.957	52.281
558	1.498	6.486	7.984	27.140	225.455	252.594	39.492	54.591
559	1.515	6.474	7.989	27.457	225.029	252.486	39.284	54.313
560	1.532	6.462	7.994	27.757	224.626	252.383	39.870	55.581
561	1.549	6.450	7.999	28.067	224.207	252.274	40.392	56.515
562	1.567	6.437	8.005	28.400	223.754	252.155	38.902	54.117
563	1.584	6.426	8.010	28.707	223.341	252.048	38.447	54.065
564	1.602	6.413	8.015	29.020	222.913	251.933	39.384	56.744
565	1.619	6.400	8.020	29.338	222.469	251.808	40.117	57.624
566	1.637	6.387	8.025	29.665	222.014	251.680	41.683	61.723
567	1.655	6.374	8.029	29.986	221.554	251.540	42.510	62.429
568	1.674	6.360	8.034	30.335	221.056	251.391	41.817	60.585
569	1.693	6.346	8.039	30.678	220.575	251.253	41.686	60.450
570	1.711	6.333	8.044	31.009	220.108	251.118	40.598	59.436
571	1.729	6.319	8.048	31.332	219.648	250.981	41.408	61.335
572	1.747	6.306	8.053	31.653	219.187	250.840	41.315	61.261
573	1.765	6.292	8.058	31.990	218.701	250.691	42.736	63.776
574	1.785	6.277	8.062	32.344	218.190	250.534	44.429	66.602
575	1.805	6.262	8.067	32.709	217.660	250.368	43.887	64.475
576	1.825	6.248	8.072	33.062	217.156	250.218	43.371	63.252
577	1.844	6.233	8.077	33.409	216.665	250.074	42.618	62.288
578	1.863	6.219	8.082	33.761	216.167	249.928	40.419	59.587
579	1.881	6.206	8.087	34.083	215.707	249.789	40.714	60.601
580	1.899	6.192	8.091	34.412	215.230	249.642	41.322	61.627
581	1.918	6.178	8.096	34.755	214.734	249.489	42.595	63.861
582	1.938	6.163	8.101	35.109	214.219	249.328	44.163	66.548
583	1.958	6.147	8.106	35.482	213.674	249.155	44.027	64.873
584	1.979	6.132	8.111	35.860	213.133	248.993	44.041	64.427
585	2.000	6.116	8.116	36.235	212.599	248.834	42.919	62.498
586	2.020	6.102	8.122	36.599	212.084	248.683	42.310	62.398
587	2.039	6.087	8.126	36.951	211.580	248.532	42.602	63.442
588	2.059	6.072	8.131	37.314	211.057	248.370	43.378	64.707
589	2.079	6.057	8.136	37.676	210.533	248.209	44.198	65.738
590	2.097	6.044	8.141	37.997	210.071	248.068	45.345	67.348
591	2.116	6.029	8.145	38.345	209.569	247.914	42.999	62.479
592	2.136	6.015	8.151	38.701	209.068	247.769	43.413	63.422
593	2.155	6.001	8.156	39.052	208.570	247.621	43.776	64.304
594	2.175	5.986	8.161	39.412	208.056	247.467	43.279	63.674
595	2.195	5.971	8.166	39.766	207.550	247.316	42.880	63.243
596	2.214	5.957	8.171	40.114	207.051	247.166	42.544	62.510
597	2.234	5.942	8.176	40.472	206.541	247.013	42.563	62.285
598	2.253	5.928	8.181	40.830	206.033	246.863	42.851	63.028
599	2.273	5.913	8.186	41.186	205.525	246.712	43.323	63.920
600	2.293	5.898	8.191	41.546	205.010	246.556	43.792	64.854
601	2.313	5.883	8.196	41.916	204.479	246.395	43.963	65.314
602	2.334	5.868	8.201	42.283	203.950	246.233	43.675	65.014
603	2.353	5.853	8.206	42.643	203.431	246.074	42.971	64.343
604	2.373	5.838	8.211	43.005	202.905	245.910	43.480	65.011
605	2.394	5.822	8.216	43.378	202.364	245.742	43.586	64.845
606	2.415	5.806	8.221	43.753	201.824	245.576	43.670	65.306
607	2.435	5.791	8.226	44.128	201.278	245.406	42.818	63.625
608	2.456	5.775	8.231	44.497	200.746	245.244	42.204	62.547
609	2.476	5.760	8.236	44.861	200.223	245.084	41.416	61.387
610	2.495	5.746	8.241	45.217	199.711	244.929	40.801	60.128
611	2.515	5.731	8.246	45.565	199.214	244.779	41.190	61.151
612	2.534	5.717	8.251	45.917	198.707	244.624	42.505	63.724
613	2.554	5.701	8.256	46.286	198.170	244.457	44.049	66.427
614	2.575	5.685	8.261	46.663	197.618	244.282	45.110	68.504
615	2.596	5.670	8.266	47.039	197.065	244.104	44.421	67.723
616	2.617	5.653	8.270	47.424	196.495	243.919	43.096	65.781
617	2.637	5.638	8.275	47.786	195.957	243.744	41.737	62.908
618	2.656	5.623	8.279	48.133	195.450	243.583	40.376	60.572
619	2.676	5.608	8.284	48.483	194.943	243.425	39.638	59.152
620	2.695	5.594	8.289	48.828	194.442	243.270	39.403	58.539
621	2.714	5.580	8.294	49.172	193.946	243.118	40.646	60.873
622	2.734	5.565	8.298	49.531	193.424	242.955	43.058	65.201
623	2.754	5.549	8.303	49.897	192.886	242.784	44.563	68.041
624	2.775	5.533	8.308	50.274	192.328	242.602	44.691	68.770
625	2.795	5.517	8.312	50.652	191.763	242.416	43.614	67.135
626	2.816	5.501	8.317	51.019	191.215	242.234	42.045	64.616
627	2.835	5.486	8.321	51.374	190.687	242.061	41.477	63.501
628	2.855	5.471	8.326	51.732	190.156	241.888	41.149	62.593
629	2.874	5.456	8.330	52.068	189.659	241.727	41.541	63.255
630	2.893	5.441	8.335	52.423	189.135	241.558	41.868	63.758
631	2.913	5.426	8.339	52.775	188.615	241.390	41.957	63.798
632	2.932	5.411	8.344	53.134	188.084	241.218	42.608	64.931
633	2.952	5.396	8.348	53.484	187.566	241.050	42.482	65.126
634	2.972	5.380	8.353	53.857	187.010	240.867	42.532	65.362
635	2.993	5.364	8.357	54.226	186.460	240.687	42.639	65.875
636	3.013	5.348	8.362	54.602	185.897	240.499	42.563	65.940
637	3.034	5.332	8.366	54.969	185.345	240.314	42.330	65.636
638	3.054	5.316	8.370	55.346	184.778	240.123	41.927	65.367
639	3.075	5.300	8.375	55.723	184.208	239.930	41.269	64.610
640	3.096	5.284	8.379	56.092	183.648	239.740	41.143	64.344
641	3.116	5.268	8.383	56.454	183.098	239.552	40.961	64.093
642	3.136	5.252	8.387	56.815	182.548	239.364	41.515	65.224
643	3.156	5.236	8.392	57.182	181.989	239.170	41.459	65.584
644	3.176	5.219	8.396	57.552	181.420	238.972	41.341	66.072
645	3.197	5.203	8.400	57.921	180.846	238.768	40.865	65.770
646	3.217	5.186	8.403	58.290	180.270	238.561	40.084	64.369
647	3.236	5.171	8.407	58.641	179.723	238.365	39.347	63.857
648	3.255	5.155	8.410	58.984	179.184	238.168	38.752	63.085
649	3.274	5.140	8.414	59.319	178.655	237.974	38.676	63.289
650	3.292	5.125	8.417	59.643	178.140	237.783	39.053	64.694
651	3.310	5.110	8.420	59.974	177.609	237.583	39.177	66.066
652	3.329	5.093	8.423	60.328	177.030	237.358	39.034	66.565
653	3.348	5.077	8.425	60.668	176.468	237.136	38.223	65.680
654	3.367	5.060	8.428	61.012	175.894	236.906	37.180	64.915
655	3.385	5.044	8.430	61.342	175.336	236.677	36.312	63.619
656	3.402	5.029	8.432	61.649	174.813	236.462	35.552	62.704
657	3.417	5.016	8.433	61.913	174.361	236.274	35.378	63.896
658	3.432	5.002	8.435	62.189	173.877	236.066	35.040	64.578
659	3.449	4.987	8.436	62.494	173.332	235.825	34.592	65.165
660	3.466	4.971	8.436	62.798	172.776	235.574	34.192	66.348
661	3.482	4.954	8.437	63.102	172.205	235.307	33.079	65.069
662	3.499	4.938	8.437	63.393	171.648	235.041	31.793	64.067
663	3.514	4.923	8.437	63.672	171.102	234.774	30.710	63.474
664	3.529	4.907	8.436	63.941	170.562	234.503	29.847	62.490
665	3.543	4.892	8.435	64.205	170.024	234.229	28.996	62.594
666	3.558	4.876	8.434	64.469	169.472	233.941	28.526	63.947
667	3.572	4.859	8.432	64.729	168.907	233.636	27.889	65.210
668	3.586	4.843	8.429	64.981	168.335	233.316	27.003	65.594
669	3.600	4.826	8.426	65.226	167.759	232.984	25.823	65.690
670	3.613	4.809	8.422	65.463	167.171	232.634	24.583	65.448
671	3.625	4.793	8.418	65.688	166.590	232.278	23.095	63.313
672	3.637	4.777	8.413	65.898	166.030	231.928	21.878	63.018
673	3.648	4.761	8.409	66.097	165.477	231.573	20.958	63.581
674	3.658	4.745	8.403	66.288	164.913	231.202	19.919	63.084
675	3.668	4.729	8.397	66.468	164.359	230.827	19.025	64.440
676	3.678	4.712	8.390	66.639	163.795	230.435	17.978	64.899
677	3.687	4.696	8.383	66.803	163.218	230.021	16.712	63.888
678	3.695	4.680	8.375	66.956	162.653	229.609	15.590	63.616
679	3.703	4.663	8.366	67.097	162.090	229.187	14.505	62.928
680	3.710	4.647	8.358	67.229	161.537	228.765	13.519	62.207
681	3.717	4.632	8.349	67.352	160.985	228.337	12.667	63.301
682	3.723	4.615	8.339	67.468	160.426	227.894	11.790	63.885
683	3.729	4.599	8.328	67.576	159.858	227.433	10.921	63.763
684	3.735	4.583	8.318	67.674	159.298	226.972	10.036	63.738
685	3.740	4.567	8.307	67.765	158.742	226.507	9.201	63.474
686	3.744	4.551	8.295	67.849	158.184	226.033	8.414	62.022
687	3.749	4.536	8.284	67.924	157.650	225.574	7.664	61.020
688	3.751	4.525	8.276	67.972	157.269	225.241	7.106	62.643
689	3.754	4.512	8.266	68.025	156.816	224.841	6.530	61.865
690	3.757	4.499	8.255	68.073	156.365	224.438	5.992	62.630
691	3.759	4.485	8.244	68.121	155.890	224.010	5.501	63.960
692	3.762	4.470	8.232	68.165	155.381	223.546	5.038	63.933
693	3.764	4.455	8.220	68.207	154.858	223.066	4.608	63.420
694	3.766	4.440	8.207	68.245	154.343	222.589	4.198	63.375
695	3.768	4.426	8.194	68.281	153.832	222.113	3.846	63.345
696	3.770	4.411	8.181	68.314	153.312	221.626	3.511	63.742
697	3.772	4.396	8.168	68.344	152.788	221.132	3.188	64.378
698	3.773	4.380	8.153	68.373	152.226	220.599	2.895	64.904
699	3.775	4.363	8.138	68.399	151.668	220.067	2.616	64.160
700	3.776	4.348	8.124	68.421	151.128	219.550	2.368	63.574
701	3.777	4.333	8.110	68.442	150.598	219.041	2.167	63.858
702	3.778	4.317	8.096	68.461	150.069	218.530	1.989	63.619
703	3.779	4.302	8.081	68.478	149.541	218.019	1.812	64.363
704	3.780	4.287	8.067	68.494	149.002	217.496	1.654	65.654
705	3.781	4.270	8.051	68.508	148.436	216.944	1.501	65.156
706	3.782	4.254	8.036	68.521	147.869	216.390	1.346	63.778
707	3.782	4.238	8.021	68.533	147.318	215.851	1.220	63.837
708	3.783	4.222	8.005	68.544	146.766	215.310	1.120	63.913
709	3.783	4.207	7.990	68.554	146.217	214.771	1.033	62.753
710	3.784	4.191	7.975	68.563	145.672	214.236	0.936	62.632
711	3.784	4.175	7.960	68.571	145.124	213.696	0.859	65.658
712	3.785	4.159	7.944	68.579	144.553	213.132	0.788	66.212
713	3.785	4.142	7.927	68.586	143.977	212.563	0.717	65.012
714	3.786	4.126	7.912	68.592	143.420	212.012	0.648	64.278
715	3.786	4.110	7.896	68.597	142.863	211.460	0.590	63.969
716	3.786	4.095	7.881	68.603	142.328	210.930	0.546	65.364
717	3.786	4.079	7.865	68.608	141.774	210.382	0.507	66.235
718	3.787	4.065	7.851	68.612	141.281	209.893	0.465	67.173
719	3.787	4.051	7.838	68.616	140.816	209.432	0.426	67.531
720	3.787	4.039	7.826	68.618	140.395	209.014	0.388	66.496
721	3.787	4.026	7.814	68.621	139.953	208.574	0.351	66.065
722	3.787	4.012	7.800	68.624	139.468	208.092	0.323	65.738
723	3.787	3.997	7.784	68.626	138.916	207.543	0.295	65.187
724	3.788	3.982	7.770	68.629	138.413	207.042	0.274	67.052
725	3.788	3.968	7.756	68.632	137.932	206.564	0.253	68.282
726	3.788	3.954	7.742	68.633	137.450	206.083	0.233	68.426
727	3.788	3.940	7.728	68.634	136.947	205.581	0.214	68.361
728	3.788	3.925	7.713	68.636	136.441	205.076	0.193	67.030
729	3.788	3.912	7.700	68.637	135.964	204.601	0.177	66.294
730	3.788	3.898	7.686	68.638	135.490	204.128	0.163	66.256
731	3.788	3.883	7.671	68.639	134.977	203.617	0.151	67.089
732	3.788	3.869	7.657	68.641	134.485	203.126	0.140	68.598
733	3.788	3.854	7.642	68.642	133.944	202.586	0.128	69.007
734	3.788	3.837	7.626	68.643	133.376	202.020	0.117	69.111
735	3.788	3.820	7.609	68.645	132.787	201.432	0.107	67.846
