Wavelength (nm) 	 Efficiency Div Wav 1 (%) 	 Efficiency Div Wav 2 (%) 	 Efficiency Div Wav total (%) 	 Jsc Div Wav 1 (A m^-2) 	 Jsc Div Wav 2 (A m^-2) 	 Jsc Div Wav total (A m^-2) 	 EQE Curve 1 (%) 	 EQE Curve 2 (%) 	Jsc 1 correction factor: 0.12747424180101746	Jsc 2 correction factor: 0.12112841760658835
400	0.000	7.235	7.235	0.000	236.729	236.729	14.124	10.421
401	0.001	7.234	7.235	0.048	236.695	236.743	15.055	11.198
402	0.003	7.233	7.235	0.103	236.656	236.759	15.145	11.252
403	0.005	7.231	7.236	0.161	236.616	236.777	14.847	11.118
404	0.006	7.230	7.236	0.215	236.577	236.793	14.425	10.934
405	0.008	7.229	7.237	0.269	236.538	236.807	14.494	11.031
406	0.009	7.228	7.237	0.323	236.500	236.822	14.630	11.121
407	0.011	7.227	7.237	0.375	236.462	236.837	15.044	11.520
408	0.012	7.225	7.238	0.428	236.423	236.852	15.178	11.689
409	0.014	7.224	7.238	0.484	236.382	236.867	15.343	11.936
410	0.016	7.223	7.238	0.546	236.337	236.883	15.515	11.984
411	0.017	7.222	7.239	0.599	236.299	236.898	15.474	12.091
412	0.019	7.220	7.239	0.659	236.255	236.914	15.576	12.294
413	0.021	7.219	7.240	0.723	236.206	236.929	15.643	12.286
414	0.023	7.217	7.240	0.784	236.160	236.944	15.736	12.373
415	0.024	7.216	7.240	0.845	236.114	236.960	15.553	12.543
416	0.026	7.214	7.241	0.909	236.066	236.975	15.812	12.745
417	0.028	7.213	7.241	0.975	236.015	236.990	16.477	13.098
418	0.030	7.211	7.241	1.043	235.964	237.007	16.057	12.912
419	0.032	7.210	7.242	1.106	235.916	237.022	16.111	13.023
420	0.034	7.208	7.242	1.173	235.865	237.038	15.788	12.797
421	0.035	7.207	7.242	1.233	235.819	237.052	15.699	12.873
422	0.037	7.205	7.243	1.302	235.766	237.067	15.702	13.136
423	0.039	7.204	7.243	1.369	235.712	237.081	16.068	13.238
424	0.041	7.202	7.243	1.437	235.659	237.096	16.108	13.215
425	0.043	7.200	7.244	1.504	235.607	237.111	15.623	13.106
426	0.045	7.199	7.244	1.572	235.552	237.124	15.672	13.488
427	0.047	7.197	7.244	1.638	235.498	237.136	16.151	13.509
428	0.049	7.195	7.245	1.704	235.445	237.149	16.011	13.529
429	0.051	7.194	7.245	1.771	235.391	237.162	15.799	13.177
430	0.053	7.192	7.245	1.832	235.343	237.175	15.785	13.420
431	0.054	7.191	7.245	1.880	235.303	237.183	16.189	14.214
432	0.055	7.190	7.245	1.926	235.264	237.190	16.301	14.112
433	0.058	7.188	7.246	2.003	235.201	237.204	16.388	14.148
434	0.060	7.186	7.246	2.075	235.142	237.217	15.962	14.036
435	0.062	7.185	7.246	2.140	235.087	237.228	16.546	14.361
436	0.064	7.183	7.246	2.216	235.025	237.241	16.434	14.384
437	0.066	7.181	7.247	2.297	234.958	237.255	16.161	14.156
438	0.068	7.179	7.247	2.379	234.890	237.268	16.410	14.590
439	0.071	7.177	7.247	2.453	234.828	237.281	17.112	14.996
440	0.073	7.175	7.247	2.527	234.766	237.293	17.162	15.210
441	0.075	7.173	7.248	2.612	234.695	237.307	16.983	14.774
442	0.078	7.170	7.248	2.696	234.626	237.322	17.170	15.075
443	0.080	7.168	7.248	2.787	234.551	237.337	17.775	15.671
444	0.083	7.166	7.249	2.882	234.471	237.353	17.663	15.582
445	0.086	7.163	7.249	2.975	234.393	237.368	17.732	15.434
446	0.088	7.161	7.249	3.072	234.313	237.385	18.399	15.747
447	0.091	7.159	7.250	3.163	234.239	237.402	18.322	15.879
448	0.094	7.156	7.250	3.266	234.155	237.420	18.940	16.291
449	0.097	7.153	7.250	3.374	234.066	237.440	18.766	16.568
450	0.100	7.151	7.251	3.481	233.976	237.458	19.271	16.868
451	0.103	7.148	7.251	3.596	233.881	237.477	18.446	16.499
452	0.107	7.145	7.252	3.711	233.784	237.495	18.078	16.358
453	0.110	7.142	7.252	3.818	233.692	237.510	18.444	17.054
454	0.113	7.139	7.252	3.920	233.602	237.522	19.112	17.666
455	0.116	7.136	7.252	4.033	233.503	237.536	20.042	18.334
456	0.119	7.133	7.252	4.152	233.400	237.552	20.301	18.782
457	0.123	7.130	7.253	4.277	233.291	237.568	20.463	18.927
458	0.127	7.126	7.253	4.404	233.179	237.584	20.584	18.843
459	0.130	7.123	7.253	4.529	233.070	237.600	20.445	19.011
460	0.134	7.120	7.253	4.654	232.960	237.614	20.682	19.269
461	0.137	7.116	7.254	4.779	232.850	237.629	21.425	19.750
462	0.141	7.113	7.254	4.914	232.731	237.645	21.399	19.645
463	0.145	7.109	7.254	5.051	232.613	237.663	21.380	19.985
464	0.149	7.105	7.254	5.188	232.490	237.678	21.260	20.150
465	0.153	7.102	7.255	5.321	232.370	237.691	21.364	19.956
466	0.157	7.098	7.255	5.452	232.253	237.705	21.183	20.273
467	0.161	7.094	7.255	5.586	232.130	237.716	21.459	20.655
468	0.164	7.091	7.255	5.716	232.012	237.728	21.711	20.751
469	0.168	7.087	7.255	5.854	231.887	237.741	21.895	21.019
470	0.172	7.083	7.255	5.993	231.760	237.752	22.971	21.719
471	0.176	7.079	7.255	6.134	231.633	237.767	22.531	21.411
472	0.181	7.075	7.256	6.276	231.504	237.780	21.031	20.650
473	0.185	7.071	7.256	6.416	231.373	237.789	22.875	22.252
474	0.189	7.067	7.256	6.561	231.239	237.800	23.900	23.050
475	0.193	7.063	7.256	6.717	231.097	237.814	22.638	22.166
476	0.198	7.058	7.256	6.870	230.956	237.825	22.541	22.259
477	0.202	7.054	7.256	7.016	230.817	237.834	23.739	23.121
478	0.206	7.050	7.256	7.172	230.673	237.845	23.781	22.959
479	0.211	7.045	7.256	7.334	230.526	237.859	23.696	23.152
480	0.216	7.041	7.256	7.492	230.378	237.869	23.180	23.004
481	0.220	7.036	7.256	7.650	230.229	237.879	22.580	22.464
482	0.225	7.032	7.256	7.804	230.083	237.887	23.328	23.210
483	0.229	7.027	7.256	7.965	229.932	237.897	23.931	23.939
484	0.234	7.022	7.256	8.128	229.777	237.905	24.346	23.911
485	0.239	7.018	7.256	8.291	229.624	237.915	24.505	24.354
486	0.243	7.013	7.256	8.455	229.468	237.923	24.638	24.565
487	0.247	7.009	7.256	8.589	229.341	237.930	24.976	25.264
488	0.252	7.004	7.256	8.742	229.194	237.937	26.674	26.276
489	0.257	6.999	7.256	8.921	229.027	237.948	27.885	26.960
490	0.262	6.994	7.256	9.095	228.866	237.961	28.083	27.247
491	0.267	6.989	7.256	9.293	228.683	237.976	28.322	27.751
492	0.273	6.983	7.256	9.484	228.505	237.989	28.380	28.064
493	0.278	6.978	7.256	9.668	228.332	238.000	29.602	28.371
494	0.284	6.972	7.256	9.873	228.144	238.017	29.844	28.488
495	0.290	6.967	7.257	10.076	227.960	238.036	29.850	29.319
496	0.296	6.961	7.257	10.291	227.759	238.050	30.152	29.516
497	0.302	6.955	7.257	10.499	227.566	238.065	28.771	28.621
498	0.308	6.949	7.257	10.701	227.375	238.076	29.297	28.533
499	0.314	6.943	7.257	10.903	227.188	238.091	30.999	30.312
500	0.320	6.937	7.257	11.116	226.991	238.107	32.230	31.042
501	0.326	6.931	7.257	11.338	226.788	238.125	31.734	30.651
502	0.332	6.925	7.257	11.550	226.593	238.143	32.613	31.156
503	0.339	6.919	7.258	11.770	226.394	238.164	33.950	32.698
504	0.345	6.912	7.258	12.008	226.176	238.184	34.705	32.800
505	0.352	6.906	7.258	12.236	225.971	238.207	31.746	30.795
506	0.358	6.900	7.258	12.461	225.764	238.225	33.066	31.733
507	0.366	6.893	7.258	12.705	225.541	238.246	34.531	32.255
508	0.373	6.886	7.259	12.949	225.326	238.274	32.139	30.647
509	0.379	6.880	7.259	13.171	225.124	238.295	30.570	30.423
510	0.385	6.874	7.259	13.392	224.914	238.306	31.070	30.588
511	0.392	6.867	7.259	13.613	224.708	238.321	30.260	29.677
512	0.398	6.861	7.259	13.832	224.503	238.335	32.365	32.281
513	0.405	6.854	7.259	14.072	224.275	238.347	33.566	33.308
514	0.412	6.847	7.259	14.308	224.054	238.361	32.551	32.592
515	0.418	6.841	7.259	14.531	223.840	238.371	34.451	34.579
516	0.425	6.834	7.259	14.776	223.608	238.383	34.793	35.125
517	0.432	6.826	7.259	15.024	223.369	238.393	35.271	35.226
518	0.438	6.820	7.259	15.231	223.173	238.404	38.280	37.230
519	0.446	6.813	7.259	15.487	222.936	238.422	36.939	36.216
520	0.452	6.806	7.259	15.728	222.712	238.439	37.002	36.776
521	0.460	6.799	7.259	15.990	222.463	238.454	37.522	36.838
522	0.468	6.791	7.259	16.262	222.210	238.472	37.553	35.909
523	0.476	6.783	7.259	16.540	221.957	238.497	38.657	37.676
524	0.484	6.776	7.259	16.810	221.706	238.516	38.141	37.659
525	0.492	6.767	7.259	17.098	221.436	238.534	36.664	36.756
526	0.500	6.759	7.259	17.373	221.174	238.548	37.880	38.079
527	0.508	6.751	7.259	17.650	220.910	238.560	39.017	38.884
528	0.515	6.744	7.259	17.900	220.674	238.574	40.270	39.712
529	0.523	6.736	7.259	18.194	220.398	238.592	39.745	39.380
530	0.532	6.727	7.259	18.499	220.111	238.610	40.614	39.702
531	0.541	6.718	7.259	18.800	219.831	238.631	40.737	39.486
532	0.550	6.709	7.259	19.117	219.538	238.655	40.866	39.997
533	0.559	6.700	7.259	19.432	219.245	238.677	41.535	40.401
534	0.567	6.692	7.260	19.719	218.980	238.699	41.383	40.644
535	0.576	6.684	7.260	20.026	218.694	238.720	42.371	41.847
536	0.585	6.674	7.260	20.345	218.395	238.739	41.122	40.862
537	0.595	6.665	7.260	20.669	218.088	238.757	42.528	41.868
538	0.604	6.656	7.260	20.978	217.799	238.777	44.236	43.223
539	0.613	6.647	7.260	21.319	217.482	238.801	45.109	43.281
540	0.623	6.637	7.260	21.659	217.172	238.831	45.826	43.895
541	0.633	6.628	7.261	21.992	216.870	238.861	47.303	44.748
542	0.642	6.619	7.261	22.323	216.572	238.895	50.286	45.846
543	0.653	6.609	7.262	22.707	216.238	238.945	49.921	47.120
544	0.664	6.598	7.262	23.083	215.901	238.984	49.630	47.268
545	0.675	6.587	7.263	23.472	215.549	239.021	47.868	46.087
546	0.686	6.577	7.263	23.839	215.212	239.051	48.078	46.843
547	0.696	6.567	7.263	24.204	214.876	239.079	49.392	46.944
548	0.707	6.556	7.264	24.583	214.532	239.115	50.047	47.520
549	0.718	6.546	7.264	24.958	214.194	239.152	51.606	48.774
550	0.730	6.535	7.265	25.360	213.833	239.193	52.627	49.198
551	0.741	6.524	7.265	25.764	213.473	239.237	53.051	50.096
552	0.753	6.513	7.266	26.173	213.106	239.279	52.534	50.089
553	0.765	6.501	7.266	26.587	212.731	239.318	53.692	51.195
554	0.777	6.490	7.267	26.999	212.357	239.357	51.448	49.637
555	0.788	6.479	7.267	27.403	211.987	239.390	51.588	49.533
556	0.800	6.467	7.267	27.812	211.614	239.426	51.555	49.416
557	0.812	6.456	7.268	28.216	211.246	239.462	52.281	49.701
558	0.823	6.445	7.268	28.614	210.886	239.500	54.591	51.483
559	0.835	6.433	7.269	29.040	210.504	239.544	54.313	51.627
560	0.847	6.422	7.269	29.443	210.141	239.584	55.581	52.230
561	0.859	6.411	7.270	29.862	209.767	239.629	56.515	52.569
562	0.872	6.398	7.271	30.315	209.366	239.680	54.117	51.352
563	0.884	6.387	7.271	30.728	208.994	239.721	54.065	51.817
564	0.896	6.375	7.272	31.156	208.604	239.760	56.744	53.472
565	0.909	6.363	7.272	31.600	208.206	239.806	57.624	53.330
566	0.922	6.351	7.273	32.055	207.807	239.861	61.723	56.298
567	0.935	6.339	7.274	32.515	207.408	239.923	62.429	56.777
568	0.950	6.325	7.275	33.013	206.977	239.990	60.585	56.837
569	0.964	6.312	7.276	33.494	206.548	240.042	60.450	55.911
570	0.977	6.300	7.277	33.960	206.138	240.098	59.436	54.858
571	0.990	6.288	7.278	34.421	205.734	240.155	61.335	56.318
572	1.004	6.275	7.279	34.882	205.332	240.214	61.261	56.193
573	1.018	6.262	7.280	35.368	204.908	240.276	63.776	57.835
574	1.032	6.249	7.281	35.879	204.468	240.347	66.602	60.139
575	1.047	6.235	7.282	36.409	204.013	240.422	64.475	59.116
576	1.062	6.222	7.283	36.913	203.574	240.487	63.252	58.623
577	1.076	6.208	7.284	37.403	203.142	240.546	62.288	57.829
578	1.090	6.195	7.285	37.902	202.702	240.604	59.587	54.964
579	1.104	6.183	7.286	38.362	202.299	240.661	60.601	56.047
580	1.117	6.170	7.287	38.839	201.881	240.720	61.627	56.497
581	1.132	6.157	7.288	39.335	201.449	240.783	63.861	58.229
582	1.146	6.143	7.289	39.850	201.003	240.853	66.548	60.082
583	1.162	6.129	7.291	40.395	200.535	240.931	64.873	59.353
584	1.178	6.114	7.292	40.936	200.065	241.001	64.427	59.545
585	1.193	6.100	7.293	41.470	199.597	241.067	62.498	58.413
586	1.208	6.086	7.294	41.985	199.139	241.124	62.398	57.892
587	1.222	6.072	7.295	42.488	198.694	241.183	63.442	58.390
588	1.237	6.058	7.296	43.012	198.235	241.247	64.707	59.548
589	1.253	6.044	7.297	43.536	197.777	241.314	65.738	60.426
590	1.266	6.032	7.298	43.998	197.374	241.372	67.348	61.886
591	1.280	6.019	7.299	44.500	196.935	241.435	62.479	57.580
592	1.295	6.005	7.300	45.001	196.497	241.498	63.422	58.002
593	1.309	5.992	7.301	45.499	196.065	241.564	64.304	59.017
594	1.324	5.978	7.302	46.013	195.616	241.629	63.674	58.268
595	1.338	5.965	7.303	46.519	195.177	241.696	63.243	57.839
596	1.353	5.952	7.304	47.018	194.743	241.761	62.510	57.025
597	1.367	5.938	7.305	47.527	194.301	241.828	62.285	56.865
598	1.382	5.925	7.307	48.036	193.860	241.896	63.028	57.668
599	1.397	5.911	7.308	48.543	193.419	241.963	63.920	58.581
600	1.411	5.897	7.309	49.058	192.970	242.028	64.854	59.160
601	1.427	5.883	7.310	49.590	192.508	242.098	65.314	59.748
602	1.442	5.869	7.311	50.119	192.049	242.168	65.014	59.256
603	1.457	5.856	7.312	50.638	191.600	242.238	64.343	58.655
604	1.472	5.842	7.314	51.164	191.143	242.307	65.011	59.322
605	1.488	5.827	7.315	51.705	190.674	242.379	64.845	59.501
606	1.503	5.813	7.316	52.245	190.203	242.448	65.306	59.692
607	1.519	5.798	7.317	52.791	189.729	242.520	63.625	58.280
608	1.534	5.784	7.318	53.322	189.267	242.589	62.547	57.002
609	1.549	5.770	7.320	53.846	188.813	242.659	61.387	55.897
610	1.564	5.757	7.321	54.358	188.370	242.728	60.128	54.792
611	1.578	5.744	7.322	54.855	187.939	242.794	61.151	55.726
612	1.593	5.730	7.323	55.362	187.501	242.863	63.724	58.053
613	1.608	5.716	7.324	55.899	187.036	242.934	66.427	60.672
614	1.624	5.701	7.325	56.451	186.556	243.007	68.504	62.377
615	1.640	5.687	7.327	57.004	186.077	243.081	67.723	61.311
616	1.656	5.672	7.328	57.574	185.588	243.162	65.781	59.381
617	1.672	5.658	7.330	58.112	185.127	243.238	62.908	57.209
618	1.686	5.644	7.331	58.619	184.688	243.307	60.572	55.005
619	1.701	5.631	7.332	59.126	184.250	243.376	59.152	53.735
620	1.715	5.618	7.333	59.627	183.817	243.445	58.539	53.354
621	1.730	5.605	7.334	60.123	183.387	243.510	60.873	55.503
622	1.745	5.591	7.336	60.645	182.937	243.581	65.201	59.364
623	1.760	5.577	7.337	61.183	182.471	243.654	68.041	61.908
624	1.776	5.562	7.338	61.741	181.989	243.730	68.770	62.221
625	1.793	5.547	7.340	62.306	181.504	243.809	67.135	60.956
626	1.808	5.533	7.341	62.854	181.031	243.885	64.616	58.598
627	1.823	5.519	7.342	63.381	180.576	243.957	63.501	57.640
628	1.839	5.505	7.343	63.913	180.117	244.030	62.593	57.064
629	1.853	5.491	7.345	64.410	179.687	244.097	63.255	57.393
630	1.868	5.478	7.346	64.934	179.235	244.169	63.758	57.925
631	1.883	5.464	7.347	65.454	178.786	244.240	63.798	58.261
632	1.898	5.450	7.348	65.984	178.326	244.311	64.931	59.062
633	1.913	5.436	7.349	66.503	177.878	244.382	65.126	59.361
634	1.929	5.421	7.351	67.059	177.397	244.457	65.362	59.788
635	1.945	5.407	7.352	67.609	176.920	244.529	65.875	60.186
636	1.961	5.392	7.353	68.172	176.431	244.603	65.940	60.070
637	1.977	5.377	7.355	68.724	175.954	244.677	65.636	60.177
638	1.994	5.362	7.356	69.291	175.459	244.751	65.367	59.884
639	2.010	5.347	7.357	69.861	174.963	244.824	64.610	59.295
640	2.026	5.332	7.358	70.421	174.475	244.895	64.344	58.986
641	2.042	5.318	7.359	70.971	173.995	244.966	64.093	58.956
642	2.058	5.303	7.360	71.521	173.515	245.036	65.224	59.819
643	2.074	5.288	7.362	72.080	173.027	245.107	65.584	60.222
644	2.090	5.273	7.363	72.649	172.532	245.181	66.072	60.791
645	2.107	5.257	7.364	73.222	172.030	245.253	65.770	60.659
646	2.123	5.242	7.365	73.799	171.526	245.325	64.369	59.413
647	2.139	5.227	7.366	74.346	171.047	245.392	63.857	59.040
648	2.154	5.213	7.367	74.885	170.573	245.458	63.085	58.330
649	2.170	5.199	7.368	75.414	170.108	245.522	63.289	58.834
650	2.184	5.185	7.369	75.929	169.652	245.581	64.694	59.666
651	2.200	5.171	7.370	76.460	169.186	245.646	66.066	60.976
652	2.216	5.155	7.371	77.039	168.679	245.718	66.565	61.626
653	2.233	5.140	7.373	77.601	168.184	245.786	65.680	60.881
654	2.249	5.124	7.374	78.175	167.679	245.854	64.915	60.439
655	2.265	5.109	7.375	78.733	167.185	245.918	63.619	59.754
656	2.280	5.095	7.375	79.256	166.719	245.975	62.704	58.819
657	2.293	5.083	7.376	79.708	166.315	246.024	63.896	59.675
658	2.307	5.070	7.377	80.191	165.887	246.078	64.578	60.214
659	2.323	5.055	7.378	80.737	165.403	246.140	65.165	60.644
660	2.339	5.040	7.379	81.293	164.911	246.204	66.348	61.719
661	2.355	5.024	7.380	81.864	164.406	246.270	65.069	60.910
662	2.371	5.009	7.381	82.421	163.911	246.332	64.067	60.088
663	2.387	4.994	7.381	82.967	163.425	246.392	63.474	59.714
664	2.402	4.980	7.382	83.507	162.942	246.449	62.490	59.039
665	2.418	4.965	7.383	84.045	162.460	246.505	62.594	59.054
666	2.434	4.950	7.384	84.597	161.964	246.561	63.947	60.038
667	2.450	4.934	7.385	85.162	161.461	246.622	65.210	61.006
668	2.467	4.919	7.385	85.734	160.952	246.686	65.594	61.450
669	2.483	4.903	7.386	86.310	160.438	246.748	65.690	61.582
670	2.500	4.887	7.387	86.898	159.915	246.813	65.448	61.247
671	2.517	4.871	7.388	87.479	159.398	246.877	63.313	59.610
672	2.533	4.856	7.389	88.039	158.897	246.936	63.018	59.157
673	2.549	4.841	7.390	88.592	158.404	246.997	63.581	59.666
674	2.565	4.826	7.391	89.155	157.902	247.057	63.084	59.238
675	2.581	4.811	7.391	89.710	157.406	247.116	64.440	60.461
676	2.597	4.795	7.392	90.273	156.904	247.177	64.899	61.137
677	2.614	4.779	7.393	90.851	156.386	247.237	63.888	60.327
678	2.630	4.764	7.394	91.416	155.880	247.296	63.616	60.093
679	2.646	4.748	7.395	91.979	155.375	247.354	62.928	59.288
680	2.662	4.733	7.395	92.532	154.880	247.412	62.207	58.695
681	2.678	4.718	7.396	93.084	154.384	247.468	63.301	59.409
682	2.694	4.703	7.397	93.643	153.886	247.529	63.885	59.961
683	2.710	4.687	7.398	94.211	153.379	247.590	63.763	60.052
684	2.727	4.672	7.399	94.771	152.879	247.649	63.738	60.070
685	2.743	4.657	7.399	95.327	152.381	247.707	63.474	59.942
686	2.759	4.642	7.400	95.885	151.879	247.764	62.022	58.592
687	2.774	4.627	7.401	96.419	151.401	247.820	61.020	57.742
688	2.785	4.617	7.402	96.800	151.059	247.859	62.643	58.929
689	2.798	4.604	7.402	97.253	150.656	247.909	61.865	58.590
690	2.811	4.592	7.403	97.704	150.250	247.954	62.630	58.786
691	2.825	4.579	7.403	98.179	149.826	248.006	63.960	60.190
692	2.839	4.565	7.404	98.688	149.371	248.059	63.933	59.930
693	2.854	4.551	7.405	99.211	148.904	248.115	63.420	59.694
694	2.869	4.537	7.406	99.726	148.444	248.170	63.375	59.370
695	2.884	4.523	7.407	100.237	147.990	248.227	63.345	59.808
696	2.899	4.509	7.407	100.757	147.524	248.280	63.742	60.255
697	2.914	4.494	7.408	101.281	147.052	248.333	64.378	60.849
698	2.930	4.479	7.409	101.843	146.547	248.390	64.904	61.380
699	2.946	4.463	7.409	102.401	146.045	248.446	64.160	60.821
700	2.962	4.448	7.410	102.941	145.559	248.499	63.574	60.395
701	2.977	4.434	7.411	103.471	145.080	248.551	63.858	60.458
702	2.992	4.419	7.411	104.000	144.604	248.604	63.619	60.278
703	3.007	4.405	7.412	104.528	144.129	248.657	64.363	60.892
704	3.023	4.390	7.413	105.067	143.645	248.712	65.654	62.144
705	3.039	4.374	7.413	105.633	143.136	248.769	65.156	61.851
706	3.055	4.359	7.414	106.200	142.625	248.825	63.778	60.687
707	3.071	4.344	7.415	106.751	142.127	248.878	63.837	60.670
708	3.087	4.328	7.415	107.303	141.628	248.931	63.913	60.609
709	3.103	4.313	7.416	107.852	141.134	248.986	62.753	59.943
710	3.119	4.298	7.417	108.396	140.640	249.036	62.632	59.751
711	3.134	4.283	7.417	108.945	140.142	249.087	65.658	62.706
712	3.151	4.267	7.418	109.516	139.624	249.139	66.212	62.764
713	3.167	4.251	7.419	110.092	139.104	249.196	65.012	61.894
714	3.183	4.236	7.419	110.649	138.600	249.249	64.278	61.130
715	3.199	4.220	7.420	111.206	138.097	249.303	63.969	60.758
716	3.215	4.206	7.420	111.741	137.614	249.355	65.364	62.115
717	3.231	4.190	7.421	112.295	137.115	249.410	66.235	63.319
718	3.245	4.177	7.422	112.788	136.667	249.455	67.173	63.965
719	3.258	4.164	7.422	113.253	136.245	249.498	67.531	64.469
720	3.270	4.152	7.423	113.674	135.864	249.538	66.496	63.744
721	3.283	4.140	7.423	114.116	135.460	249.577	66.065	63.459
722	3.297	4.126	7.423	114.601	135.018	249.619	65.738	62.843
723	3.313	4.111	7.424	115.153	134.518	249.671	65.187	63.009
724	3.327	4.097	7.424	115.656	134.055	249.711	67.052	64.331
725	3.341	4.084	7.425	116.137	133.617	249.753	68.282	65.751
726	3.355	4.070	7.425	116.619	133.176	249.794	68.426	66.219
727	3.370	4.056	7.425	117.122	132.713	249.835	68.361	66.104
728	3.384	4.042	7.426	117.628	132.248	249.876	67.030	65.227
729	3.398	4.028	7.426	118.105	131.807	249.912	66.294	64.770
730	3.412	4.015	7.426	118.579	131.366	249.945	66.256	64.744
731	3.426	4.000	7.426	119.092	130.890	249.982	67.089	65.542
732	3.440	3.986	7.427	119.584	130.434	250.017	68.598	66.789
733	3.456	3.971	7.427	120.125	129.932	250.057	69.007	67.071
