Wavelength (nm) 	 Efficiency Div Wav 1 (%) 	 Efficiency Div Wav 2 (%) 	 Efficiency Div Wav total (%) 	 Jsc Div Wav 1 (A m^-2) 	 Jsc Div Wav 2 (A m^-2) 	 Jsc Div Wav total (A m^-2) 	 EQE Curve 1 (%) 	 EQE Curve 2 (%) 	Jsc 1 correction factor: 0.12747424180101746	Jsc 2 correction factor: 0.11138078088588836
400	0.000	11.892	11.892	0.000	241.850	241.850	14.124	25.882
401	0.001	11.888	11.890	0.048	241.772	241.820	15.055	28.075
402	0.003	11.884	11.887	0.103	241.683	241.786	15.145	28.702
403	0.005	11.879	11.884	0.161	241.588	241.749	14.847	28.444
404	0.006	11.875	11.881	0.215	241.497	241.712	14.425	27.922
405	0.008	11.870	11.878	0.269	241.406	241.675	14.494	27.980
406	0.009	11.866	11.875	0.323	241.316	241.639	14.630	28.449
407	0.011	11.861	11.872	0.375	241.227	241.602	15.044	29.270
408	0.012	11.857	11.869	0.428	241.137	241.565	15.178	29.922
409	0.014	11.852	11.866	0.484	241.040	241.525	15.343	30.587
410	0.016	11.847	11.863	0.546	240.933	241.479	15.515	30.901
411	0.017	11.842	11.860	0.599	240.841	241.440	15.474	31.634
412	0.019	11.837	11.856	0.659	240.735	241.394	15.576	32.048
413	0.021	11.832	11.852	0.723	240.620	241.343	15.643	32.007
414	0.023	11.826	11.849	0.784	240.510	241.294	15.736	32.555
415	0.024	11.821	11.845	0.845	240.399	241.244	15.553	32.540
416	0.026	11.815	11.841	0.909	240.283	241.192	15.812	33.401
417	0.028	11.809	11.837	0.975	240.160	241.136	16.477	33.853
418	0.030	11.803	11.833	1.043	240.038	241.081	16.057	34.349
419	0.032	11.797	11.829	1.106	239.919	241.025	16.111	34.766
420	0.034	11.791	11.825	1.173	239.793	240.966	15.788	34.381
421	0.035	11.785	11.821	1.233	239.678	240.911	15.699	34.505
422	0.037	11.779	11.816	1.302	239.547	240.848	15.702	35.146
423	0.039	11.772	11.812	1.369	239.414	240.783	16.068	35.410
424	0.041	11.766	11.807	1.437	239.284	240.720	16.108	36.157
425	0.043	11.759	11.803	1.504	239.151	240.655	15.623	35.648
426	0.045	11.753	11.798	1.572	239.016	240.588	15.672	36.716
427	0.047	11.746	11.793	1.638	238.881	240.519	16.151	37.390
428	0.049	11.739	11.788	1.704	238.746	240.450	16.011	37.327
429	0.051	11.733	11.784	1.771	238.610	240.381	15.799	36.953
430	0.053	11.727	11.779	1.832	238.485	240.317	15.785	37.920
431	0.054	11.722	11.776	1.880	238.383	240.263	16.189	39.838
432	0.055	11.717	11.772	1.926	238.285	240.211	16.301	39.411
433	0.058	11.709	11.766	2.003	238.122	240.125	16.388	39.568
434	0.060	11.701	11.761	2.075	237.969	240.045	15.962	39.555
435	0.062	11.694	11.756	2.140	237.828	239.968	16.546	40.958
436	0.064	11.686	11.750	2.216	237.667	239.882	16.434	40.583
437	0.066	11.678	11.744	2.297	237.491	239.788	16.161	40.129
438	0.068	11.669	11.737	2.379	237.312	239.691	16.410	41.610
439	0.071	11.661	11.731	2.453	237.150	239.602	17.112	43.323
440	0.073	11.653	11.726	2.527	236.986	239.513	17.162	42.659
441	0.075	11.644	11.719	2.612	236.800	239.412	16.983	42.684
442	0.078	11.635	11.712	2.696	236.616	239.312	17.170	41.932
443	0.080	11.625	11.705	2.787	236.424	239.210	17.775	44.440
444	0.083	11.615	11.698	2.882	236.215	239.097	17.663	44.982
445	0.086	11.605	11.690	2.975	236.009	238.984	17.732	45.099
446	0.088	11.594	11.683	3.072	235.793	238.865	18.399	45.522
447	0.091	11.585	11.675	3.163	235.596	238.759	18.322	46.117
448	0.094	11.573	11.667	3.266	235.369	238.635	18.940	47.116
449	0.097	11.562	11.659	3.374	235.134	238.508	18.766	46.230
450	0.100	11.550	11.651	3.481	234.902	238.383	19.271	48.360
451	0.103	11.538	11.641	3.596	234.650	238.246	18.446	46.062
452	0.107	11.526	11.632	3.711	234.401	238.112	18.078	44.720
453	0.110	11.514	11.624	3.818	234.168	237.986	18.444	46.914
454	0.113	11.503	11.616	3.920	233.941	237.861	19.112	48.121
455	0.116	11.491	11.607	4.033	233.691	237.725	20.042	49.593
456	0.119	11.478	11.598	4.152	233.434	237.586	20.301	49.802
457	0.123	11.465	11.588	4.277	233.167	237.444	20.463	50.552
458	0.127	11.452	11.578	4.404	232.893	237.297	20.584	50.156
459	0.130	11.438	11.569	4.529	232.627	237.156	20.445	49.848
460	0.134	11.425	11.559	4.654	232.361	237.016	20.682	50.941
461	0.137	11.412	11.550	4.779	232.092	236.871	21.425	52.219
462	0.141	11.398	11.539	4.914	231.805	236.719	21.399	51.178
463	0.145	11.384	11.529	5.051	231.519	236.570	21.380	51.045
464	0.149	11.370	11.519	5.188	231.233	236.421	21.260	50.024
465	0.153	11.357	11.510	5.321	230.960	236.281	21.364	49.587
466	0.157	11.343	11.500	5.452	230.693	236.145	21.183	49.956
467	0.161	11.330	11.491	5.586	230.417	236.003	21.459	50.814
468	0.164	11.317	11.481	5.716	230.148	235.864	21.711	50.463
469	0.168	11.303	11.471	5.854	229.869	235.722	21.895	50.844
470	0.172	11.289	11.461	5.993	229.586	235.578	22.971	52.734
471	0.176	11.275	11.452	6.134	229.303	235.437	22.531	51.704
472	0.181	11.261	11.442	6.276	229.019	235.294	21.031	49.099
473	0.185	11.247	11.432	6.416	228.734	235.150	22.875	52.777
474	0.189	11.233	11.421	6.561	228.440	235.001	23.900	54.510
475	0.193	11.217	11.411	6.717	228.131	234.848	22.638	52.453
476	0.198	11.202	11.400	6.870	227.823	234.692	22.541	52.008
477	0.202	11.188	11.390	7.016	227.526	234.543	23.739	54.208
478	0.206	11.172	11.379	7.172	227.216	234.387	23.781	54.315
479	0.211	11.157	11.368	7.334	226.894	234.227	23.696	54.450
480	0.216	11.141	11.356	7.492	226.575	234.067	23.180	52.704
481	0.220	11.125	11.346	7.650	226.261	233.911	22.580	51.290
482	0.225	11.110	11.335	7.804	225.955	233.759	23.328	53.327
483	0.229	11.095	11.324	7.965	225.634	233.599	23.931	54.635
484	0.234	11.079	11.313	8.128	225.309	233.437	24.346	54.498
485	0.239	11.063	11.301	8.291	224.989	233.280	24.505	54.936
486	0.243	11.047	11.290	8.455	224.666	233.122	24.638	55.336
487	0.247	11.034	11.281	8.589	224.403	232.993	24.976	56.275
488	0.252	11.019	11.271	8.742	224.103	232.845	26.674	59.903
489	0.257	11.002	11.259	8.921	223.753	232.673	27.885	60.993
490	0.262	10.986	11.247	9.095	223.418	232.513	28.083	61.333
491	0.267	10.967	11.234	9.293	223.040	232.333	28.322	61.571
492	0.273	10.949	11.222	9.484	222.676	232.160	28.380	63.288
493	0.278	10.932	11.210	9.668	222.318	231.986	29.602	64.228
494	0.284	10.912	11.196	9.873	221.928	231.801	29.844	63.831
495	0.290	10.894	11.184	10.076	221.549	231.624	29.850	64.226
496	0.296	10.874	11.170	10.291	221.143	231.434	30.152	64.141
497	0.302	10.855	11.157	10.499	220.758	231.257	28.771	62.588
498	0.308	10.836	11.144	10.701	220.372	231.074	29.297	62.805
499	0.314	10.817	11.131	10.903	219.996	230.899	30.999	65.814
500	0.320	10.798	11.118	11.116	219.601	230.716	32.230	67.746
501	0.326	10.778	11.104	11.338	219.193	230.530	31.734	67.079
502	0.332	10.759	11.091	11.550	218.801	230.351	32.613	67.476
503	0.339	10.739	11.078	11.770	218.405	230.175	33.950	70.280
504	0.345	10.718	11.063	12.008	217.973	229.981	34.705	70.368
505	0.352	10.698	11.050	12.236	217.569	229.805	31.746	66.776
506	0.358	10.678	11.036	12.461	217.157	229.617	33.066	67.439
507	0.366	10.656	11.022	12.705	216.721	229.427	34.531	69.091
508	0.373	10.636	11.008	12.949	216.297	229.246	32.139	65.154
509	0.379	10.616	10.995	13.171	215.905	229.076	30.570	62.752
510	0.385	10.597	10.982	13.392	215.506	228.899	31.070	63.499
511	0.392	10.577	10.969	13.613	215.113	228.726	30.260	60.921
512	0.398	10.558	10.956	13.832	214.728	228.560	32.365	65.638
513	0.405	10.537	10.942	14.072	214.302	228.374	33.566	67.496
514	0.412	10.517	10.929	14.308	213.889	228.197	32.551	65.457
515	0.418	10.498	10.916	14.531	213.496	228.027	34.451	69.514
516	0.425	10.477	10.902	14.776	213.065	227.840	34.793	69.791
517	0.432	10.455	10.887	15.024	212.628	227.652	35.271	70.198
518	0.438	10.438	10.876	15.231	212.269	227.500	38.280	75.224
519	0.446	10.416	10.861	15.487	211.828	227.315	36.939	71.775
520	0.452	10.396	10.848	15.728	211.420	227.147	37.002	71.919
521	0.460	10.374	10.834	15.990	210.973	226.963	37.522	72.369
522	0.468	10.351	10.819	16.262	210.516	226.778	37.553	70.448
523	0.476	10.329	10.805	16.540	210.061	226.601	38.657	72.853
524	0.484	10.307	10.791	16.810	209.616	226.426	38.141	71.886
525	0.492	10.284	10.776	17.098	209.143	226.241	36.664	70.308
526	0.500	10.261	10.761	17.373	208.682	226.055	37.880	71.825
527	0.508	10.239	10.746	17.650	208.224	225.874	39.017	73.579
528	0.515	10.218	10.733	17.900	207.813	225.713	40.270	74.665
529	0.523	10.195	10.718	18.194	207.335	225.530	39.745	73.905
530	0.532	10.171	10.703	18.499	206.840	225.339	40.614	74.095
531	0.541	10.147	10.688	18.800	206.360	225.160	40.737	73.692
532	0.550	10.122	10.672	19.117	205.857	224.975	40.866	73.062
533	0.559	10.098	10.657	19.432	205.365	224.797	41.535	73.909
534	0.567	10.076	10.643	19.719	204.919	224.638	41.383	73.986
535	0.576	10.053	10.629	20.026	204.441	224.467	42.371	75.755
536	0.585	10.028	10.613	20.345	203.942	224.286	41.122	73.891
537	0.595	10.003	10.598	20.669	203.433	224.101	42.528	75.907
538	0.604	9.979	10.583	20.978	202.949	223.928	44.236	77.876
539	0.613	9.953	10.567	21.319	202.426	223.744	45.109	77.185
540	0.623	9.929	10.552	21.659	201.918	223.577	45.826	78.258
541	0.633	9.904	10.537	21.992	201.421	223.413	47.303	78.891
542	0.642	9.880	10.523	22.323	200.938	223.261	50.286	81.975
543	0.653	9.853	10.507	22.707	200.391	223.098	49.921	83.336
544	0.664	9.826	10.491	23.083	199.842	222.925	49.630	82.318
545	0.675	9.799	10.474	23.472	199.278	222.750	47.868	80.901
546	0.686	9.772	10.458	23.839	198.736	222.575	48.078	80.509
547	0.696	9.746	10.442	24.204	198.202	222.406	49.392	80.616
548	0.707	9.719	10.426	24.583	197.660	222.243	50.047	82.190
549	0.718	9.693	10.411	24.958	197.122	222.080	51.606	83.384
550	0.730	9.665	10.394	25.360	196.555	221.915	52.627	84.261
551	0.741	9.637	10.378	25.764	195.989	221.753	53.051	85.188
552	0.753	9.609	10.362	26.173	195.415	221.588	52.534	84.940
553	0.765	9.580	10.345	26.587	194.829	221.417	53.692	87.058
554	0.777	9.551	10.328	26.999	194.246	221.245	51.448	83.263
555	0.788	9.523	10.312	27.403	193.674	221.078	51.588	83.104
556	0.800	9.495	10.295	27.812	193.099	220.911	51.555	82.657
557	0.812	9.467	10.279	28.216	192.533	220.749	52.281	83.355
558	0.823	9.440	10.263	28.614	191.978	220.592	54.591	86.386
559	0.835	9.411	10.246	29.040	191.389	220.429	54.313	84.672
560	0.847	9.384	10.231	29.443	190.841	220.284	55.581	86.949
561	0.859	9.356	10.215	29.862	190.268	220.131	56.515	87.921
562	0.872	9.325	10.198	30.315	189.653	219.967	54.117	84.678
563	0.884	9.298	10.182	30.728	189.088	219.815	54.065	84.953
564	0.896	9.269	10.165	31.156	188.500	219.656	56.744	87.884
565	0.909	9.239	10.148	31.600	187.898	219.498	57.624	88.335
566	0.922	9.209	10.131	32.055	187.289	219.344	61.723	92.769
567	0.935	9.180	10.115	32.515	186.685	219.200	62.429	92.029
568	0.950	9.148	10.098	33.013	186.043	219.056	60.585	91.720
569	0.964	9.117	10.080	33.494	185.407	218.901	60.450	90.231
570	0.977	9.087	10.064	33.960	184.797	218.758	59.436	89.401
571	0.990	9.057	10.047	34.421	184.194	218.614	61.335	91.737
572	1.004	9.027	10.031	34.882	183.591	218.473	61.261	90.581
573	1.018	8.996	10.014	35.368	182.963	218.331	63.776	94.074
574	1.032	8.964	9.996	35.879	182.305	218.184	66.602	96.333
575	1.047	8.931	9.979	36.409	181.634	218.043	64.475	94.211
576	1.062	8.900	9.962	36.913	180.992	217.904	63.252	93.328
577	1.076	8.868	9.945	37.403	180.359	217.762	62.288	91.956
578	1.090	8.837	9.927	37.902	179.715	217.617	59.587	86.989
579	1.104	8.808	9.912	38.362	179.128	217.490	60.601	88.295
580	1.117	8.778	9.896	38.839	178.522	217.361	61.627	89.546
581	1.132	8.747	9.879	39.335	177.893	217.228	63.861	92.152
582	1.146	8.715	9.862	39.850	177.244	217.093	66.548	94.380
583	1.162	8.682	9.844	40.395	176.567	216.963	64.873	93.081
584	1.178	8.649	9.826	40.936	175.890	216.826	64.427	93.046
585	1.193	8.616	9.809	41.470	175.216	216.686	62.498	90.780
586	1.208	8.583	9.791	41.985	174.563	216.548	62.398	89.751
587	1.222	8.552	9.775	42.488	173.930	216.418	63.442	90.566
588	1.237	8.520	9.758	43.012	173.276	216.289	64.707	92.491
589	1.253	8.488	9.741	43.536	172.621	216.158	65.738	94.480
590	1.266	8.459	9.725	43.998	172.041	216.039	67.348	95.886
591	1.280	8.429	9.709	44.500	171.416	215.916	62.479	88.429
592	1.295	8.398	9.693	45.001	170.797	215.798	63.422	89.166
593	1.309	8.368	9.677	45.499	170.185	215.685	64.304	90.649
594	1.324	8.337	9.661	46.013	169.553	215.566	63.674	89.631
595	1.338	8.307	9.645	46.519	168.931	215.450	63.243	88.334
596	1.353	8.277	9.629	47.018	168.322	215.340	62.510	86.892
597	1.367	8.246	9.614	47.527	167.704	215.231	62.285	86.529
598	1.382	8.216	9.598	48.036	167.087	215.123	63.028	87.247
599	1.397	8.186	9.582	48.543	166.473	215.017	63.920	88.913
600	1.411	8.155	9.566	49.058	165.846	214.904	64.854	89.274
601	1.427	8.123	9.550	49.590	165.206	214.796	65.314	89.958
602	1.442	8.092	9.534	50.119	164.570	214.689	65.014	89.204
603	1.457	8.061	9.518	50.638	163.947	214.585	64.343	88.286
604	1.472	8.030	9.502	51.164	163.315	214.480	65.011	89.382
605	1.488	7.998	9.486	51.705	162.666	214.371	64.845	89.695
606	1.503	7.966	9.469	52.245	162.013	214.259	65.306	89.844
607	1.519	7.934	9.453	52.791	161.358	214.149	63.625	87.659
608	1.534	7.903	9.437	53.322	160.718	214.040	62.547	85.787
609	1.549	7.872	9.421	53.846	160.090	213.936	61.387	83.869
610	1.564	7.842	9.406	54.358	159.479	213.837	60.128	82.447
611	1.578	7.812	9.391	54.855	158.884	213.738	61.151	83.553
612	1.593	7.783	9.375	55.362	158.279	213.641	63.724	87.052
613	1.608	7.751	9.359	55.899	157.637	213.536	66.427	91.530
614	1.624	7.718	9.343	56.451	156.972	213.423	68.504	94.026
615	1.640	7.686	9.326	57.004	156.308	213.312	67.723	92.003
616	1.656	7.653	9.309	57.574	155.632	213.206	65.781	89.097
617	1.672	7.621	9.293	58.112	154.996	213.108	62.908	85.497
618	1.686	7.592	9.278	58.619	154.395	213.014	60.572	81.956
619	1.701	7.562	9.263	59.126	153.795	212.921	59.152	80.221
620	1.715	7.533	9.249	59.627	153.201	212.828	58.539	79.329
621	1.730	7.504	9.234	60.123	152.613	212.736	60.873	82.702
622	1.745	7.474	9.218	60.645	151.995	212.639	65.201	88.521
623	1.760	7.442	9.203	61.183	151.356	212.539	68.041	92.414
624	1.776	7.410	9.186	61.741	150.695	212.436	68.770	92.870
625	1.793	7.377	9.170	62.306	150.029	212.334	67.135	90.815
626	1.808	7.345	9.154	62.854	149.382	212.235	64.616	86.930
627	1.823	7.315	9.138	63.381	148.761	212.143	63.501	85.274
628	1.839	7.284	9.123	63.913	148.136	212.049	62.593	84.242
629	1.853	7.255	9.108	64.410	147.552	211.962	63.255	84.885
630	1.868	7.225	9.093	64.934	146.938	211.872	63.758	85.167
631	1.883	7.195	9.078	65.454	146.331	211.785	63.798	85.507
632	1.898	7.165	9.063	65.984	145.711	211.695	64.931	86.543
633	1.913	7.135	9.048	66.503	145.106	211.609	65.126	86.778
634	1.929	7.103	9.033	67.059	144.460	211.519	65.362	87.657
635	1.945	7.072	9.017	67.609	143.816	211.424	65.875	88.128
636	1.961	7.039	9.001	68.172	143.158	211.330	65.940	88.175
637	1.977	7.008	8.985	68.724	142.513	211.237	65.636	87.661
638	1.994	6.975	8.968	69.291	141.851	211.142	65.367	86.657
639	2.010	6.942	8.952	69.861	141.191	211.052	64.610	85.596
640	2.026	6.911	8.937	70.421	140.542	210.963	64.344	85.338
641	2.042	6.879	8.921	70.971	139.904	210.876	64.093	85.295
642	2.058	6.848	8.906	71.521	139.266	210.787	65.224	86.695
643	2.074	6.816	8.890	72.080	138.616	210.696	65.584	86.884
644	2.090	6.784	8.874	72.649	137.958	210.607	66.072	87.534
645	2.107	6.751	8.858	73.222	137.295	210.517	65.770	87.064
646	2.123	6.718	8.841	73.799	136.629	210.427	64.369	85.291
647	2.139	6.687	8.826	74.346	135.995	210.340	63.857	84.733
648	2.154	6.656	8.811	74.885	135.370	210.255	63.085	83.618
649	2.170	6.626	8.796	75.414	134.756	210.170	63.289	83.926
650	2.184	6.597	8.781	75.929	134.159	210.088	64.694	85.076
651	2.200	6.567	8.766	76.460	133.548	210.008	66.066	86.916
652	2.216	6.534	8.750	77.039	132.882	209.921	66.565	87.740
653	2.233	6.502	8.735	77.601	132.235	209.836	65.680	86.840
654	2.249	6.470	8.719	78.175	131.572	209.747	64.915	85.893
655	2.265	6.438	8.703	78.733	130.926	209.659	63.619	84.468
656	2.280	6.408	8.688	79.256	130.320	209.576	62.704	83.050
657	2.293	6.382	8.675	79.708	129.796	209.505	63.896	84.508
658	2.307	6.355	8.662	80.191	129.238	209.430	64.578	85.213
659	2.323	6.324	8.647	80.737	128.609	209.346	65.165	85.746
660	2.339	6.292	8.631	81.293	127.970	209.263	66.348	87.394
661	2.355	6.260	8.615	81.864	127.312	209.176	65.069	86.086
662	2.371	6.228	8.600	82.421	126.668	209.089	64.067	84.761
663	2.387	6.197	8.584	82.967	126.037	209.004	63.474	84.358
664	2.402	6.167	8.569	83.507	125.409	208.916	62.490	83.334
665	2.418	6.136	8.554	84.045	124.783	208.828	62.594	82.907
666	2.434	6.104	8.538	84.597	124.144	208.741	63.947	84.204
667	2.450	6.072	8.522	85.162	123.495	208.656	65.210	85.992
668	2.467	6.040	8.506	85.734	122.835	208.569	65.594	86.084
669	2.483	6.007	8.491	86.310	122.174	208.484	65.690	86.260
670	2.500	5.974	8.474	86.898	121.500	208.398	65.448	85.727
671	2.517	5.942	8.458	87.479	120.834	208.313	63.313	83.328
672	2.533	5.910	8.443	88.039	120.191	208.230	63.018	82.672
673	2.549	5.879	8.428	88.592	119.557	208.149	63.581	83.474
674	2.565	5.847	8.412	89.155	118.911	208.067	63.084	82.525
675	2.581	5.816	8.397	89.710	118.276	207.986	64.440	84.240
676	2.597	5.784	8.381	90.273	117.633	207.906	64.899	84.864
677	2.614	5.752	8.365	90.851	116.973	207.824	63.888	83.646
678	2.630	5.720	8.350	91.416	116.327	207.743	63.616	83.256
679	2.646	5.688	8.335	91.979	115.683	207.662	62.928	82.102
680	2.662	5.657	8.319	92.532	115.053	207.585	62.207	81.005
681	2.678	5.626	8.304	93.084	114.425	207.509	63.301	82.203
682	2.694	5.595	8.289	93.643	113.791	207.434	63.885	82.728
683	2.710	5.564	8.274	94.211	113.147	207.358	63.763	82.682
684	2.727	5.532	8.259	94.771	112.514	207.284	63.738	82.576
685	2.743	5.501	8.244	95.327	111.884	207.211	63.474	81.883
686	2.759	5.471	8.229	95.885	111.255	207.140	62.022	80.083
687	2.774	5.441	8.215	96.419	110.652	207.071	61.020	78.654
688	2.785	5.420	8.205	96.800	110.224	207.024	62.643	80.671
689	2.798	5.395	8.193	97.253	109.715	206.967	61.865	79.833
690	2.811	5.370	8.181	97.704	109.206	206.909	62.630	80.411
691	2.825	5.344	8.168	98.179	108.672	206.851	63.960	81.900
692	2.839	5.316	8.155	98.688	108.103	206.791	63.933	81.214
693	2.854	5.287	8.141	99.211	107.523	206.733	63.420	80.539
694	2.869	5.259	8.128	99.726	106.951	206.677	63.375	80.475
695	2.884	5.231	8.115	100.237	106.384	206.621	63.345	80.815
696	2.899	5.202	8.101	100.757	105.804	206.561	63.742	81.148
697	2.914	5.174	8.088	101.281	105.220	206.501	64.378	82.358
698	2.930	5.143	8.073	101.843	104.591	206.434	64.904	82.169
699	2.946	5.112	8.059	102.401	103.973	206.374	64.160	81.227
700	2.962	5.083	8.045	102.941	103.376	206.316	63.574	80.527
701	2.977	5.054	8.031	103.471	102.789	206.260	63.858	80.607
702	2.992	5.026	8.018	104.000	102.205	206.205	63.619	80.703
703	3.007	4.997	8.004	104.528	101.620	206.148	64.363	81.751
704	3.023	4.967	7.990	105.067	101.021	206.088	65.654	83.504
705	3.039	4.936	7.975	105.633	100.393	206.026	65.156	82.638
706	3.055	4.906	7.961	106.200	99.765	205.965	63.778	80.787
707	3.071	4.876	7.947	106.751	99.156	205.906	63.837	80.736
708	3.087	4.846	7.933	107.303	98.545	205.848	63.913	80.784
709	3.103	4.816	7.919	107.852	97.939	205.791	62.753	79.175
710	3.119	4.786	7.905	108.396	97.339	205.735	62.632	79.212
711	3.134	4.756	7.891	108.945	96.733	205.678	65.658	83.503
712	3.151	4.725	7.876	109.516	96.098	205.614	66.212	83.214
713	3.167	4.694	7.861	110.092	95.464	205.556	65.012	81.897
714	3.183	4.664	7.847	110.649	94.851	205.500	64.278	80.709
715	3.199	4.634	7.833	111.206	94.240	205.446	63.969	80.153
716	3.215	4.605	7.820	111.741	93.653	205.395	65.364	82.064
717	3.231	4.575	7.806	112.295	93.046	205.341	66.235	83.496
718	3.245	4.548	7.793	112.788	92.503	205.291	67.173	84.136
719	3.258	4.523	7.782	113.253	91.994	205.247	67.531	84.692
720	3.270	4.501	7.771	113.674	91.533	205.207	66.496	83.459
721	3.283	4.477	7.760	114.116	91.047	205.163	66.065	83.008
722	3.297	4.451	7.748	114.601	90.515	205.115	65.738	82.290
723	3.313	4.421	7.734	115.153	89.912	205.065	65.187	81.882
724	3.327	4.394	7.721	115.656	89.359	205.015	67.052	83.807
725	3.341	4.368	7.709	116.137	88.834	204.971	68.282	85.147
726	3.355	4.342	7.697	116.619	88.309	204.928	68.426	85.440
727	3.370	4.315	7.685	117.122	87.760	204.882	68.361	85.645
728	3.384	4.288	7.672	117.628	87.207	204.835	67.030	84.165
