Wavelength (nm) 	 Efficiency Div Wav 1 (%) 	 Efficiency Div Wav 2 (%) 	 Efficiency Div Wav total (%) 	 Jsc Div Wav 1 (A m^-2) 	 Jsc Div Wav 2 (A m^-2) 	 Jsc Div Wav total (A m^-2) 	 EQE Curve 1 (%) 	 EQE Curve 2 (%) 	Jsc 1 correction factor: 0.11138078088588836	Jsc 2 correction factor: 0.13134985171721028
400	0.000	3.789	3.789	0.000	68.650	68.650	25.882	11.562
401	0.004	3.786	3.790	0.078	68.609	68.687	28.075	12.501
402	0.008	3.784	3.792	0.167	68.563	68.730	28.702	12.457
403	0.013	3.781	3.794	0.262	68.515	68.776	28.444	12.445
404	0.017	3.779	3.796	0.353	68.467	68.821	27.922	12.315
405	0.022	3.776	3.798	0.444	68.420	68.865	27.980	12.395
406	0.026	3.773	3.800	0.534	68.373	68.906	28.449	12.285
407	0.031	3.771	3.801	0.623	68.327	68.949	29.270	12.613
408	0.035	3.768	3.803	0.713	68.281	68.994	29.922	12.719
409	0.040	3.766	3.805	0.810	68.232	69.042	30.587	12.726
410	0.045	3.763	3.808	0.917	68.180	69.096	30.901	12.815
411	0.050	3.760	3.810	1.009	68.135	69.144	31.634	12.862
412	0.055	3.757	3.812	1.115	68.084	69.199	32.048	12.899
413	0.060	3.754	3.815	1.230	68.030	69.260	32.007	12.759
414	0.066	3.752	3.817	1.340	67.977	69.317	32.555	12.997
415	0.071	3.749	3.820	1.451	67.925	69.376	32.540	12.881
416	0.077	3.746	3.823	1.567	67.871	69.438	33.401	13.102
417	0.083	3.743	3.826	1.690	67.815	69.504	33.853	13.272
418	0.089	3.739	3.829	1.812	67.758	69.570	34.349	13.589
419	0.095	3.736	3.831	1.931	67.703	69.634	34.766	13.613
420	0.101	3.733	3.834	2.057	67.645	69.702	34.381	13.375
421	0.107	3.730	3.837	2.172	67.593	69.765	34.505	13.366
422	0.113	3.727	3.840	2.303	67.532	69.836	35.146	13.586
423	0.120	3.724	3.843	2.436	67.472	69.908	35.410	13.738
424	0.126	3.720	3.847	2.566	67.413	69.979	36.157	13.738
425	0.133	3.717	3.850	2.699	67.354	70.052	35.648	13.556
426	0.139	3.714	3.853	2.834	67.293	70.127	36.716	13.906
427	0.146	3.710	3.856	2.969	67.233	70.202	37.390	14.082
428	0.153	3.707	3.860	3.104	67.174	70.278	37.327	14.032
429	0.159	3.704	3.863	3.240	67.113	70.353	36.953	13.719
430	0.165	3.701	3.866	3.365	67.058	70.423	37.920	13.922
431	0.170	3.698	3.869	3.467	67.013	70.481	39.838	14.528
432	0.175	3.696	3.871	3.565	66.971	70.537	39.411	14.560
433	0.183	3.692	3.875	3.728	66.900	70.628	39.568	14.586
434	0.191	3.689	3.879	3.881	66.835	70.715	39.555	14.557
435	0.198	3.685	3.883	4.022	66.773	70.795	40.958	14.692
436	0.206	3.681	3.887	4.183	66.705	70.888	40.583	14.693
437	0.214	3.677	3.892	4.359	66.630	70.989	40.129	14.521
438	0.223	3.673	3.896	4.538	66.554	71.091	41.610	15.037
439	0.231	3.669	3.900	4.700	66.484	71.184	43.323	15.441
440	0.239	3.665	3.905	4.864	66.416	71.280	42.659	15.297
441	0.248	3.661	3.909	5.050	66.337	71.387	42.684	15.328
442	0.257	3.657	3.914	5.234	66.259	71.493	41.932	15.729
443	0.267	3.652	3.919	5.426	66.174	71.601	44.440	16.234
444	0.277	3.647	3.924	5.635	66.085	71.719	44.982	16.095
445	0.287	3.642	3.930	5.841	65.998	71.839	45.099	16.159
446	0.298	3.637	3.935	6.057	65.906	71.963	45.522	16.555
447	0.308	3.633	3.940	6.254	65.822	72.076	46.117	16.584
448	0.319	3.627	3.946	6.481	65.725	72.206	47.116	16.802
449	0.330	3.622	3.952	6.716	65.626	72.343	46.230	17.210
450	0.342	3.616	3.958	6.948	65.525	72.473	48.360	17.540
451	0.354	3.610	3.964	7.200	65.417	72.617	46.062	17.124
452	0.366	3.604	3.971	7.449	65.308	72.758	44.720	17.084
453	0.378	3.598	3.976	7.682	65.203	72.885	46.914	17.706
454	0.389	3.593	3.982	7.909	65.102	73.011	48.121	18.258
455	0.401	3.587	3.988	8.159	64.991	73.149	49.593	18.840
456	0.414	3.580	3.994	8.416	64.875	73.291	49.802	19.334
457	0.427	3.574	4.001	8.683	64.753	73.436	50.552	19.504
458	0.440	3.567	4.007	8.957	64.628	73.585	50.156	19.224
459	0.454	3.560	4.014	9.223	64.507	73.731	49.848	19.260
460	0.467	3.553	4.020	9.489	64.386	73.875	50.941	19.688
461	0.480	3.547	4.026	9.758	64.264	74.022	52.219	20.328
462	0.494	3.539	4.033	10.045	64.132	74.177	51.178	20.332
463	0.508	3.532	4.040	10.331	63.998	74.328	51.045	20.584
464	0.522	3.524	4.046	10.617	63.861	74.478	50.024	20.753
465	0.535	3.517	4.052	10.890	63.727	74.617	49.587	20.422
466	0.549	3.510	4.058	11.157	63.597	74.754	49.956	21.152
467	0.562	3.502	4.064	11.433	63.459	74.892	50.814	21.353
468	0.575	3.495	4.070	11.702	63.326	75.028	50.463	21.370
469	0.589	3.487	4.076	11.981	63.187	75.168	50.844	21.790
470	0.603	3.479	4.082	12.264	63.044	75.308	52.734	22.688
471	0.617	3.471	4.088	12.547	62.901	75.448	51.704	22.479
472	0.631	3.463	4.094	12.831	62.755	75.586	49.099	21.750
473	0.645	3.455	4.100	13.116	62.607	75.723	52.777	23.342
474	0.659	3.447	4.106	13.410	62.453	75.863	54.510	23.878
475	0.675	3.438	4.112	13.719	62.294	76.013	52.453	23.233
476	0.690	3.429	4.119	14.027	62.132	76.160	52.008	23.282
477	0.704	3.420	4.125	14.324	61.976	76.300	54.208	24.364
478	0.720	3.411	4.131	14.634	61.811	76.445	54.315	24.203
479	0.735	3.402	4.137	14.956	61.641	76.597	54.450	24.661
480	0.751	3.392	4.144	15.275	61.470	76.745	52.704	24.003
481	0.767	3.383	4.150	15.589	61.302	76.891	51.290	23.919
482	0.782	3.374	4.155	15.895	61.134	77.029	53.327	24.744
483	0.797	3.364	4.162	16.216	60.958	77.174	54.635	25.162
484	0.813	3.354	4.168	16.541	60.782	77.323	54.498	25.491
485	0.829	3.345	4.174	16.861	60.606	77.467	54.936	26.253
486	0.845	3.335	4.180	17.184	60.424	77.607	55.336	26.191
487	0.858	3.327	4.184	17.447	60.276	77.723	56.275	26.770
488	0.873	3.317	4.190	17.747	60.108	77.856	59.903	28.270
489	0.890	3.307	4.196	18.097	59.914	78.011	60.993	29.497
490	0.906	3.296	4.202	18.432	59.723	78.156	61.333	29.705
491	0.925	3.284	4.209	18.810	59.508	78.318	61.571	29.855
492	0.943	3.273	4.216	19.174	59.301	78.475	63.288	30.286
493	0.960	3.262	4.222	19.532	59.098	78.630	64.228	30.998
494	0.980	3.249	4.229	19.922	58.876	78.798	63.831	30.874
495	0.998	3.237	4.236	20.301	58.660	78.961	64.226	31.688
496	1.018	3.224	4.242	20.707	58.423	79.130	64.141	31.956
497	1.037	3.212	4.249	21.092	58.196	79.288	62.588	31.307
498	1.056	3.199	4.255	21.478	57.969	79.446	62.805	31.058
499	1.075	3.187	4.262	21.854	57.749	79.603	65.814	32.715
500	1.094	3.174	4.268	22.249	57.518	79.768	67.746	33.696
501	1.114	3.161	4.275	22.657	57.279	79.936	67.079	32.989
502	1.133	3.149	4.282	23.049	57.052	80.101	67.476	33.469
503	1.153	3.136	4.289	23.445	56.821	80.265	70.280	34.851
504	1.174	3.122	4.296	23.877	56.568	80.445	70.368	35.075
505	1.194	3.109	4.303	24.281	56.331	80.612	66.776	32.703
506	1.214	3.096	4.310	24.693	56.093	80.786	67.439	33.796
507	1.236	3.081	4.317	25.129	55.836	80.964	69.091	34.404
508	1.256	3.068	4.324	25.553	55.586	81.139	65.154	32.768
509	1.276	3.055	4.331	25.945	55.353	81.298	62.752	32.240
510	1.295	3.042	4.337	26.344	55.112	81.456	63.499	32.009
511	1.315	3.029	4.343	26.737	54.878	81.615	60.921	31.381
512	1.334	3.016	4.349	27.122	54.644	81.766	65.638	33.680
513	1.355	3.002	4.356	27.548	54.387	81.935	67.496	34.274
514	1.375	2.988	4.363	27.961	54.138	82.099	65.457	33.211
515	1.394	2.975	4.369	28.354	53.903	82.258	69.514	35.416
516	1.415	2.961	4.376	28.785	53.645	82.430	69.791	35.064
517	1.437	2.946	4.383	29.222	53.386	82.608	70.198	35.053
518	1.455	2.935	4.389	29.581	53.174	82.755	75.224	36.696
519	1.476	2.921	4.397	30.022	52.921	82.942	71.775	35.892
520	1.496	2.907	4.404	30.430	52.680	83.111	71.919	36.079
521	1.518	2.893	4.411	30.877	52.416	83.293	72.369	35.889
522	1.541	2.878	4.419	31.334	52.149	83.482	70.448	35.366
523	1.563	2.863	4.426	31.789	51.879	83.668	72.853	37.256
524	1.585	2.848	4.433	32.234	51.611	83.845	71.886	36.779
525	1.608	2.833	4.441	32.707	51.325	84.032	70.308	35.583
526	1.631	2.817	4.448	33.168	51.050	84.219	71.825	36.461
527	1.653	2.802	4.456	33.626	50.776	84.402	73.579	37.026
528	1.674	2.789	4.462	34.037	50.532	84.568	74.665	37.276
529	1.697	2.773	4.470	34.515	50.251	84.765	73.905	36.874
530	1.721	2.757	4.479	35.010	49.959	84.969	74.095	36.808
531	1.745	2.742	4.487	35.490	49.678	85.168	73.692	36.747
532	1.770	2.725	4.495	35.993	49.382	85.375	73.062	36.789
533	1.794	2.709	4.503	36.485	49.089	85.574	73.909	36.752
534	1.816	2.695	4.511	36.931	48.828	85.759	73.986	37.585
535	1.839	2.679	4.518	37.409	48.540	85.950	75.755	38.398
536	1.864	2.662	4.526	37.908	48.242	86.151	73.891	36.565
537	1.889	2.646	4.535	38.417	47.945	86.363	75.907	37.391
538	1.913	2.631	4.543	38.901	47.664	86.565	77.876	38.029
539	1.939	2.614	4.552	39.424	47.363	86.788	77.185	37.922
540	1.964	2.598	4.561	39.932	47.069	87.001	78.258	37.943
541	1.988	2.582	4.570	40.429	46.786	87.214	78.891	38.373
542	2.012	2.567	4.578	40.912	46.508	87.421	81.975	40.105
543	2.039	2.549	4.588	41.459	46.193	87.652	83.336	40.281
544	2.066	2.532	4.598	42.008	45.881	87.889	82.318	39.310
545	2.093	2.515	4.608	42.572	45.564	88.136	80.901	38.712
546	2.120	2.498	4.618	43.114	45.258	88.372	80.509	38.726
547	2.146	2.481	4.627	43.648	44.956	88.604	80.616	38.443
548	2.173	2.464	4.637	44.190	44.651	88.841	82.190	39.178
549	2.199	2.448	4.647	44.728	44.349	89.077	83.384	39.591
550	2.227	2.430	4.657	45.295	44.031	89.326	84.261	39.898
551	2.255	2.413	4.668	45.861	43.715	89.576	85.188	40.774
552	2.283	2.395	4.678	46.435	43.391	89.826	84.940	39.976
553	2.312	2.377	4.689	47.021	43.067	90.087	87.058	40.472
554	2.341	2.359	4.700	47.604	42.746	90.351	83.263	39.088
555	2.369	2.342	4.710	48.176	42.430	90.605	83.104	38.617
556	2.397	2.324	4.721	48.751	42.115	90.866	82.657	37.967
557	2.425	2.307	4.732	49.317	41.809	91.126	83.355	37.957
558	2.452	2.291	4.743	49.872	41.510	91.382	86.386	39.492
559	2.481	2.273	4.755	50.461	41.193	91.654	84.672	39.284
560	2.508	2.257	4.765	51.009	40.893	91.902	86.949	39.870
561	2.536	2.240	4.776	51.582	40.583	92.165	87.921	40.392
562	2.567	2.221	4.788	52.197	40.250	92.447	84.678	38.902
563	2.594	2.204	4.799	52.762	39.943	92.706	84.953	38.447
564	2.623	2.187	4.810	53.350	39.630	92.980	87.884	39.384
565	2.653	2.170	4.822	53.952	39.312	93.263	88.335	40.117
566	2.683	2.152	4.834	54.561	38.985	93.546	92.769	41.683
567	2.713	2.134	4.846	55.165	38.664	93.829	92.029	42.510
568	2.744	2.115	4.859	55.807	38.315	94.122	91.720	41.817
569	2.775	2.096	4.871	56.443	37.972	94.415	90.231	41.686
570	2.805	2.077	4.883	57.053	37.641	94.694	89.401	40.598
571	2.835	2.060	4.895	57.656	37.318	94.974	91.737	41.408
572	2.865	2.042	4.906	58.259	36.997	95.256	90.581	41.315
573	2.896	2.023	4.919	58.887	36.660	95.547	94.074	42.736
574	2.928	2.004	4.932	59.545	36.306	95.852	96.333	44.429
575	2.961	1.984	4.944	60.216	35.941	96.157	94.211	43.887
576	2.992	1.964	4.957	60.858	35.588	96.446	93.328	43.371
577	3.024	1.945	4.968	61.491	35.241	96.732	91.956	42.618
578	3.055	1.925	4.981	62.135	34.889	97.024	86.989	40.419
579	3.084	1.908	4.992	62.722	34.567	97.289	88.295	40.714
580	3.114	1.890	5.003	63.328	34.238	97.565	89.546	41.322
581	3.145	1.871	5.015	63.957	33.895	97.852	92.152	42.595
582	3.177	1.851	5.028	64.606	33.541	98.148	94.380	44.163
583	3.210	1.831	5.041	65.283	33.168	98.451	93.081	44.027
584	3.243	1.810	5.053	65.960	32.790	98.750	93.046	44.041
585	3.276	1.789	5.065	66.634	32.415	99.048	90.780	42.919
586	3.309	1.769	5.077	67.287	32.051	99.338	89.751	42.310
587	3.340	1.749	5.089	67.920	31.699	99.619	90.566	42.602
588	3.372	1.729	5.101	68.574	31.336	99.910	92.491	43.378
589	3.404	1.709	5.113	69.229	30.974	100.202	94.480	44.198
590	3.433	1.692	5.124	69.809	30.653	100.462	95.886	45.345
591	3.463	1.672	5.136	70.434	30.305	100.739	88.429	42.999
592	3.494	1.653	5.147	71.053	29.949	101.002	89.166	43.413
593	3.524	1.633	5.157	71.665	29.598	101.263	90.649	43.776
594	3.555	1.614	5.169	72.297	29.238	101.536	89.631	43.279
595	3.585	1.594	5.180	72.919	28.884	101.803	88.334	42.880
596	3.615	1.575	5.190	73.528	28.536	102.064	86.892	42.544
597	3.646	1.555	5.201	74.146	28.178	102.325	86.529	42.563
598	3.676	1.535	5.212	74.763	27.820	102.583	87.247	42.851
599	3.706	1.516	5.222	75.377	27.464	102.841	88.913	43.323
600	3.737	1.496	5.233	76.004	27.104	103.108	89.274	43.792
601	3.769	1.475	5.244	76.644	26.734	103.378	89.958	43.963
602	3.800	1.455	5.255	77.280	26.367	103.648	89.204	43.675
603	3.831	1.435	5.266	77.903	26.007	103.910	88.286	42.971
604	3.862	1.415	5.277	78.535	25.645	104.179	89.382	43.480
605	3.894	1.395	5.288	79.184	25.272	104.456	89.695	43.586
606	3.926	1.374	5.300	79.837	24.897	104.734	89.844	43.670
607	3.958	1.353	5.311	80.492	24.522	105.013	87.659	42.818
608	3.989	1.333	5.322	81.132	24.153	105.285	85.787	42.204
609	4.020	1.313	5.333	81.760	23.789	105.549	83.869	41.416
610	4.050	1.293	5.343	82.371	23.433	105.803	82.447	40.801
611	4.080	1.274	5.354	82.966	23.085	106.051	83.553	41.190
612	4.109	1.255	5.364	83.571	22.733	106.304	87.052	42.505
613	4.141	1.234	5.375	84.213	22.364	106.576	91.530	44.049
614	4.174	1.213	5.387	84.878	21.987	106.864	94.026	45.110
615	4.206	1.193	5.399	85.542	21.611	107.153	92.003	44.421
616	4.239	1.171	5.411	86.218	21.226	107.444	89.097	43.096
617	4.271	1.151	5.422	86.854	20.864	107.717	85.497	41.737
618	4.300	1.132	5.433	87.455	20.517	107.972	81.956	40.376
619	4.330	1.113	5.443	88.055	20.167	108.223	80.221	39.638
620	4.359	1.094	5.453	88.649	19.822	108.471	79.329	39.403
621	4.388	1.075	5.463	89.237	19.478	108.715	82.702	40.646
622	4.418	1.055	5.473	89.855	19.119	108.975	88.521	43.058
623	4.450	1.035	5.485	90.494	18.753	109.246	92.414	44.563
624	4.482	1.014	5.496	91.155	18.376	109.531	92.870	44.691
625	4.515	0.993	5.508	91.821	17.998	109.819	90.815	43.614
626	4.547	0.973	5.520	92.468	17.631	110.099	86.930	42.045
627	4.577	0.953	5.531	93.089	17.276	110.365	85.274	41.477
628	4.608	0.934	5.542	93.714	16.918	110.631	84.242	41.149
629	4.637	0.915	5.552	94.298	16.582	110.880	84.885	41.541
630	4.667	0.896	5.562	94.912	16.227	111.139	85.167	41.868
631	4.697	0.876	5.573	95.519	15.875	111.394	85.507	41.957
632	4.727	0.856	5.584	96.139	15.516	111.656	86.543	42.608
633	4.757	0.837	5.594	96.744	15.166	111.910	86.778	42.482
634	4.789	0.816	5.605	97.390	14.793	112.183	87.657	42.532
635	4.820	0.796	5.616	98.034	14.424	112.458	88.128	42.639
636	4.853	0.775	5.628	98.692	14.048	112.740	88.175	42.563
637	4.885	0.755	5.640	99.337	13.681	113.019	87.661	42.330
638	4.917	0.734	5.651	99.999	13.304	113.303	86.657	41.927
639	4.950	0.713	5.663	100.659	12.927	113.587	85.596	41.269
640	4.981	0.693	5.674	101.308	12.558	113.866	85.338	41.143
641	5.013	0.673	5.686	101.946	12.196	114.142	85.295	40.961
642	5.044	0.653	5.697	102.584	11.835	114.419	86.695	41.515
643	5.076	0.633	5.709	103.234	11.468	114.703	86.884	41.459
644	5.108	0.612	5.721	103.892	11.098	114.989	87.534	41.341
645	5.141	0.592	5.733	104.555	10.729	115.284	87.064	40.865
646	5.174	0.572	5.746	105.221	10.360	115.581	85.291	40.084
647	5.205	0.552	5.757	105.855	10.009	115.864	84.733	39.347
648	5.236	0.533	5.769	106.480	9.666	116.146	83.618	38.752
649	5.266	0.515	5.781	107.094	9.331	116.425	83.926	38.676
650	5.295	0.497	5.792	107.691	9.007	116.697	85.076	39.053
651	5.325	0.479	5.804	108.302	8.676	116.978	86.916	39.177
652	5.358	0.459	5.817	108.968	8.322	117.291	87.740	39.034
653	5.390	0.441	5.830	109.615	7.982	117.598	86.840	38.223
654	5.422	0.422	5.844	110.278	7.638	117.916	85.893	37.180
655	5.454	0.403	5.858	110.924	7.308	118.232	84.468	36.312
656	5.484	0.386	5.870	111.530	7.001	118.531	83.050	35.552
657	5.510	0.372	5.882	112.054	6.737	118.790	84.508	35.378
658	5.537	0.357	5.894	112.612	6.461	119.073	85.213	35.040
659	5.568	0.340	5.908	113.241	6.156	119.397	85.746	34.592
660	5.600	0.323	5.923	113.880	5.852	119.732	87.394	34.192
661	5.632	0.306	5.938	114.538	5.548	120.087	86.086	33.079
662	5.664	0.290	5.954	115.182	5.257	120.439	84.761	31.793
663	5.695	0.275	5.969	115.813	4.978	120.791	84.358	30.710
664	5.726	0.260	5.985	116.441	4.709	121.150	83.334	29.847
665	5.756	0.245	6.002	117.067	4.445	121.512	82.907	28.996
666	5.788	0.231	6.018	117.706	4.181	121.887	84.204	28.526
667	5.820	0.216	6.036	118.355	3.921	122.276	85.992	27.889
668	5.852	0.202	6.055	119.015	3.669	122.683	86.084	27.003
669	5.885	0.189	6.074	119.676	3.424	123.101	86.260	25.823
670	5.918	0.176	6.094	120.350	3.187	123.537	85.727	24.583
671	5.951	0.163	6.114	121.016	2.962	123.978	83.328	23.095
672	5.982	0.152	6.134	121.659	2.752	124.411	82.672	21.878
673	6.013	0.141	6.154	122.293	2.553	124.846	83.474	20.958
674	6.045	0.130	6.175	122.939	2.362	125.300	82.525	19.919
675	6.076	0.120	6.197	123.574	2.182	125.755	84.240	19.025
676	6.108	0.111	6.219	124.217	2.011	126.228	84.864	17.978
677	6.140	0.102	6.242	124.877	1.847	126.724	83.646	16.712
678	6.172	0.094	6.266	125.523	1.694	127.217	83.256	15.590
679	6.204	0.086	6.289	126.167	1.553	127.719	82.102	14.505
680	6.235	0.078	6.313	126.797	1.421	128.218	81.005	13.519
681	6.266	0.072	6.337	127.425	1.298	128.723	82.203	12.667
682	6.297	0.065	6.362	128.059	1.182	129.241	82.728	11.790
683	6.328	0.059	6.388	128.703	1.074	129.777	82.682	10.921
684	6.360	0.054	6.413	129.336	0.976	130.312	82.576	10.036
685	6.391	0.049	6.439	129.966	0.885	130.851	81.883	9.201
686	6.421	0.044	6.466	130.595	0.801	131.396	80.083	8.414
687	6.451	0.040	6.491	131.198	0.726	131.924	78.654	7.664
688	6.472	0.037	6.510	131.626	0.678	132.304	80.671	7.106
689	6.497	0.035	6.532	132.135	0.625	132.761	79.833	6.530
690	6.522	0.032	6.554	132.644	0.577	133.221	80.411	5.992
691	6.549	0.029	6.578	133.178	0.529	133.707	81.900	5.501
692	6.576	0.027	6.603	133.747	0.485	134.232	81.214	5.038
693	6.605	0.024	6.629	134.327	0.443	134.770	80.539	4.608
694	6.633	0.022	6.655	134.899	0.405	135.303	80.475	4.198
695	6.661	0.020	6.681	135.466	0.369	135.835	80.815	3.846
696	6.690	0.019	6.708	136.046	0.336	136.382	81.148	3.511
697	6.718	0.017	6.735	136.630	0.306	136.936	82.358	3.188
698	6.749	0.015	6.764	137.259	0.277	137.536	82.169	2.895
699	6.780	0.014	6.793	137.877	0.251	138.128	81.227	2.616
700	6.809	0.013	6.822	138.474	0.229	138.703	80.527	2.368
701	6.838	0.011	6.849	139.061	0.208	139.269	80.607	2.167
702	6.866	0.010	6.877	139.645	0.189	139.834	80.703	1.989
703	6.895	0.009	6.905	140.230	0.172	140.402	81.751	1.812
704	6.925	0.009	6.933	140.829	0.156	140.985	83.504	1.654
705	6.956	0.008	6.963	141.457	0.142	141.599	82.638	1.501
706	6.986	0.007	6.994	142.085	0.129	142.214	80.787	1.346
707	7.016	0.006	7.023	142.694	0.117	142.811	80.736	1.220
708	7.046	0.006	7.052	143.305	0.106	143.411	80.784	1.120
709	7.076	0.005	7.082	143.911	0.096	144.007	79.175	1.033
710	7.106	0.005	7.111	144.511	0.087	144.598	79.212	0.936
711	7.136	0.004	7.140	145.117	0.079	145.196	83.503	0.859
712	7.167	0.004	7.171	145.752	0.071	145.823	83.214	0.788
713	7.198	0.004	7.201	146.386	0.064	146.450	81.897	0.717
714	7.228	0.003	7.231	146.999	0.058	147.057	80.709	0.648
715	7.258	0.003	7.261	147.610	0.053	147.662	80.153	0.590
716	7.287	0.003	7.290	148.197	0.047	148.244	82.064	0.546
717	7.317	0.002	7.319	148.804	0.042	148.846	83.496	0.507
718	7.344	0.002	7.346	149.347	0.038	149.385	84.136	0.465
719	7.369	0.002	7.370	149.856	0.034	149.890	84.692	0.426
720	7.391	0.002	7.393	150.317	0.032	150.349	83.459	0.388
721	7.415	0.002	7.417	150.803	0.029	150.832	83.008	0.351
722	7.441	0.001	7.443	151.335	0.026	151.362	82.290	0.323
723	7.471	0.001	7.472	151.938	0.024	151.962	81.882	0.295
724	7.498	0.001	7.499	152.491	0.021	152.512	83.807	0.274
725	7.524	0.001	7.525	153.016	0.018	153.034	85.147	0.253
726	7.550	0.001	7.551	153.541	0.017	153.558	85.440	0.233
727	7.577	0.001	7.578	154.090	0.016	154.106	85.645	0.214
728	7.604	0.001	7.605	154.643	0.014	154.658	84.165	0.193
729	7.630	0.001	7.630	155.166	0.013	155.179	83.507	0.177
730	7.655	0.001	7.656	155.688	0.012	155.700	83.871	0.163
731	7.683	0.001	7.684	156.255	0.011	156.265	84.655	0.151
732	7.710	0.001	7.710	156.799	0.009	156.808	86.240	0.140
733	7.739	0.000	7.740	157.394	0.008	157.402	86.723	0.128
734	7.770	0.000	7.770	158.017	0.007	158.024	86.247	0.117
735	7.801	0.000	7.802	158.660	0.005	158.665	85.004	0.107
736	7.832	0.000	7.832	159.282	0.004	159.286	84.186	0.097
737	7.862	0.000	7.862	159.895	0.003	159.898	84.672	0.090
738	7.893	0.000	7.893	160.512	0.001	160.513	84.840	0.082
739	7.924	0.000	7.924	161.142	0.000	161.142	86.469	0.077
740	7.954	0.000	7.954	161.768	0.000	161.768	87.461	0.071
741	7.986	0.000	7.986	162.413	0.000	162.413	86.698	0.065
742	8.018	0.000	8.018	163.054	0.000	163.054	85.954	0.059
743	8.049	0.000	8.049	163.690	0.000	163.690	84.543	0.054
