Wavelength (nm) 	 Efficiency Div Wav 1 (%) 	 Efficiency Div Wav 2 (%) 	 Efficiency Div Wav total (%) 	 Jsc Div Wav 1 (A m^-2) 	 Jsc Div Wav 2 (A m^-2) 	 Jsc Div Wav total (A m^-2) 	 EQE Curve 1 (%) 	 EQE Curve 2 (%) 	Jsc 1 correction factor: 0.11138078088588836	Jsc 2 correction factor: 0.12747424180101746
400	0.000	7.310	7.310	0.000	254.069	254.069	25.882	14.124
401	0.004	7.308	7.312	0.078	254.020	254.098	28.075	15.055
402	0.008	7.307	7.315	0.167	253.966	254.133	28.702	15.145
403	0.013	7.305	7.318	0.262	253.908	254.170	28.444	14.847
404	0.017	7.303	7.321	0.353	253.853	254.207	27.922	14.425
405	0.022	7.302	7.324	0.444	253.800	254.244	27.980	14.494
406	0.026	7.300	7.326	0.534	253.746	254.280	28.449	14.630
407	0.031	7.299	7.329	0.623	253.694	254.317	29.270	15.044
408	0.035	7.297	7.332	0.713	253.641	254.353	29.922	15.178
409	0.040	7.296	7.335	0.810	253.585	254.394	30.587	15.343
410	0.045	7.294	7.339	0.917	253.523	254.440	30.901	15.515
411	0.050	7.292	7.342	1.009	253.470	254.479	31.634	15.474
412	0.055	7.291	7.345	1.115	253.410	254.525	32.048	15.576
413	0.060	7.289	7.349	1.230	253.346	254.576	32.007	15.643
414	0.066	7.287	7.353	1.340	253.285	254.625	32.555	15.736
415	0.071	7.285	7.357	1.451	253.224	254.675	32.540	15.553
416	0.077	7.283	7.360	1.567	253.160	254.727	33.401	15.812
417	0.083	7.281	7.365	1.690	253.094	254.783	33.853	16.477
418	0.089	7.280	7.369	1.812	253.026	254.838	34.349	16.057
419	0.095	7.278	7.373	1.931	252.962	254.894	34.766	16.111
420	0.101	7.276	7.377	2.057	252.896	254.953	34.381	15.788
421	0.107	7.274	7.381	2.172	252.836	255.008	34.505	15.699
422	0.113	7.272	7.385	2.303	252.767	255.071	35.146	15.702
423	0.120	7.270	7.390	2.436	252.700	255.136	35.410	16.068
424	0.126	7.268	7.394	2.566	252.632	255.198	36.157	16.108
425	0.133	7.266	7.399	2.699	252.565	255.263	35.648	15.623
426	0.139	7.264	7.404	2.834	252.497	255.331	36.716	15.672
427	0.146	7.262	7.408	2.969	252.431	255.400	37.390	16.151
428	0.153	7.261	7.413	3.104	252.365	255.469	37.327	16.011
429	0.159	7.259	7.418	3.240	252.298	255.538	36.953	15.799
430	0.165	7.257	7.422	3.365	252.237	255.602	37.920	15.785
431	0.170	7.255	7.426	3.467	252.189	255.656	39.838	16.189
432	0.175	7.254	7.429	3.565	252.143	255.708	39.411	16.301
433	0.183	7.252	7.435	3.728	252.066	255.794	39.568	16.388
434	0.191	7.250	7.441	3.881	251.994	255.874	39.555	15.962
435	0.198	7.248	7.446	4.022	251.929	255.951	40.958	16.546
436	0.206	7.246	7.452	4.183	251.853	256.037	40.583	16.434
437	0.214	7.243	7.458	4.359	251.772	256.131	40.129	16.161
438	0.223	7.241	7.464	4.538	251.690	256.228	41.610	16.410
439	0.231	7.239	7.470	4.700	251.616	256.317	43.323	17.112
440	0.239	7.237	7.476	4.864	251.542	256.406	42.659	17.162
441	0.248	7.234	7.483	5.050	251.457	256.507	42.684	16.983
442	0.257	7.232	7.489	5.234	251.373	256.607	41.932	17.170
443	0.267	7.229	7.496	5.426	251.282	256.709	44.440	17.775
444	0.277	7.227	7.504	5.635	251.187	256.821	44.982	17.663
445	0.287	7.224	7.511	5.841	251.094	256.934	45.099	17.732
446	0.298	7.221	7.519	6.057	250.997	257.054	45.522	18.399
447	0.308	7.219	7.526	6.254	250.906	257.160	46.117	18.322
448	0.319	7.216	7.534	6.481	250.803	257.284	47.116	18.940
449	0.330	7.212	7.543	6.716	250.695	257.411	46.230	18.766
450	0.342	7.209	7.551	6.948	250.588	257.536	48.360	19.271
451	0.354	7.206	7.560	7.200	250.473	257.673	46.062	18.446
452	0.366	7.203	7.569	7.449	250.358	257.807	44.720	18.078
453	0.378	7.200	7.577	7.682	250.251	257.933	46.914	18.444
454	0.389	7.197	7.586	7.909	250.149	258.058	48.121	19.112
455	0.401	7.194	7.595	8.159	250.036	258.194	49.593	20.042
456	0.414	7.190	7.604	8.416	249.917	258.333	49.802	20.301
457	0.427	7.187	7.613	8.683	249.792	258.475	50.552	20.463
458	0.440	7.183	7.623	8.957	249.665	258.622	50.156	20.584
459	0.454	7.179	7.633	9.223	249.540	258.763	49.848	20.445
460	0.467	7.176	7.642	9.489	249.415	258.903	50.941	20.682
461	0.480	7.172	7.652	9.758	249.290	259.048	52.219	21.425
462	0.494	7.168	7.662	10.045	249.155	259.200	51.178	21.399
463	0.508	7.164	7.672	10.331	249.018	259.349	51.045	21.380
464	0.522	7.160	7.682	10.617	248.881	259.498	50.024	21.260
465	0.535	7.156	7.692	10.890	248.748	259.638	49.587	21.364
466	0.549	7.153	7.701	11.157	248.617	259.774	49.956	21.183
467	0.562	7.149	7.711	11.433	248.483	259.916	50.814	21.459
468	0.575	7.145	7.720	11.702	248.353	260.055	50.463	21.711
469	0.589	7.141	7.730	11.981	248.215	260.197	50.844	21.895
470	0.603	7.137	7.740	12.264	248.076	260.340	52.734	22.971
471	0.617	7.133	7.750	12.547	247.935	260.482	51.704	22.531
472	0.631	7.129	7.760	12.831	247.793	260.624	49.099	21.031
473	0.645	7.125	7.770	13.116	247.653	260.769	52.777	22.875
474	0.659	7.121	7.780	13.410	247.508	260.918	54.510	23.900
475	0.675	7.116	7.791	13.719	247.352	261.071	52.453	22.638
476	0.690	7.112	7.802	14.027	247.199	261.227	52.008	22.541
477	0.704	7.108	7.812	14.324	247.053	261.376	54.208	23.739
478	0.720	7.103	7.823	14.634	246.897	261.532	54.315	23.781
479	0.735	7.099	7.834	14.956	246.735	261.692	54.450	23.696
480	0.751	7.094	7.845	15.275	246.577	261.852	52.704	23.180
481	0.767	7.089	7.856	15.589	246.419	262.008	51.290	22.580
482	0.782	7.085	7.867	15.895	246.265	262.160	53.327	23.328
483	0.797	7.080	7.878	16.216	246.104	262.320	54.635	23.931
484	0.813	7.076	7.889	16.541	245.941	262.482	54.498	24.346
485	0.829	7.071	7.900	16.861	245.778	262.639	54.936	24.505
486	0.845	7.066	7.911	17.184	245.614	262.797	55.336	24.638
487	0.858	7.062	7.920	17.447	245.480	262.926	56.275	24.976
488	0.873	7.058	7.931	17.747	245.327	263.074	59.903	26.674
489	0.890	7.053	7.943	18.097	245.148	263.245	60.993	27.885
490	0.906	7.048	7.954	18.432	244.974	263.406	61.333	28.083
491	0.925	7.042	7.967	18.810	244.776	263.586	61.571	28.322
492	0.943	7.037	7.980	19.174	244.585	263.759	63.288	28.380
493	0.960	7.031	7.992	19.532	244.401	263.933	64.228	29.602
494	0.980	7.026	8.005	19.922	244.196	264.118	63.831	29.844
495	0.998	7.020	8.018	20.301	243.993	264.295	64.226	29.850
496	1.018	7.013	8.032	20.707	243.778	264.485	64.141	30.152
497	1.037	7.007	8.045	21.092	243.570	264.662	62.588	28.771
498	1.056	7.002	8.058	21.478	243.367	264.845	62.805	29.297
499	1.075	6.996	8.070	21.854	243.166	265.020	65.814	30.999
500	1.094	6.990	8.084	22.249	242.953	265.203	67.746	32.230
501	1.114	6.983	8.097	22.657	242.731	265.388	67.079	31.734
502	1.133	6.977	8.111	23.049	242.518	265.568	67.476	32.613
503	1.153	6.971	8.124	23.445	242.299	265.744	70.280	33.950
504	1.174	6.964	8.138	23.877	242.061	265.938	70.368	34.705
505	1.194	6.958	8.151	24.281	241.833	266.114	66.776	31.746
506	1.214	6.951	8.165	24.693	241.608	266.301	67.439	33.066
507	1.236	6.944	8.180	25.129	241.364	266.492	69.091	34.531
508	1.256	6.937	8.193	25.553	241.120	266.673	65.154	32.139
509	1.276	6.931	8.206	25.945	240.898	266.843	62.752	30.570
510	1.295	6.924	8.220	26.344	240.676	267.020	63.499	31.070
511	1.315	6.918	8.233	26.737	240.456	267.193	60.921	30.260
512	1.334	6.912	8.245	27.122	240.237	267.359	65.638	32.365
513	1.355	6.905	8.259	27.548	239.997	267.545	67.496	33.566
514	1.375	6.898	8.273	27.961	239.761	267.722	65.457	32.551
515	1.394	6.891	8.286	28.354	239.538	267.892	69.514	34.451
516	1.415	6.884	8.300	28.785	239.293	268.079	69.791	34.793
517	1.437	6.877	8.314	29.222	239.045	268.267	70.198	35.271
518	1.455	6.871	8.326	29.581	238.838	268.419	75.224	38.280
519	1.476	6.864	8.340	30.022	238.582	268.604	71.775	36.939
520	1.496	6.857	8.353	30.430	238.341	268.771	71.919	37.002
521	1.518	6.850	8.368	30.877	238.079	268.956	72.369	37.522
522	1.541	6.842	8.382	31.334	237.807	269.141	70.448	37.553
523	1.563	6.834	8.397	31.789	237.529	269.318	72.853	38.657
524	1.585	6.826	8.411	32.234	237.259	269.492	71.886	38.141
525	1.608	6.818	8.426	32.707	236.971	269.678	70.308	36.664
526	1.631	6.810	8.441	33.168	236.695	269.864	71.825	37.880
527	1.653	6.802	8.455	33.626	236.419	270.045	73.579	39.017
528	1.674	6.795	8.468	34.037	236.169	270.206	74.665	40.270
529	1.697	6.786	8.483	34.515	235.875	270.389	73.905	39.745
530	1.721	6.777	8.499	35.010	235.570	270.580	74.095	40.614
531	1.745	6.769	8.514	35.490	235.269	270.759	73.692	40.737
532	1.770	6.760	8.529	35.993	234.952	270.944	73.062	40.866
533	1.794	6.750	8.544	36.485	234.637	271.122	73.909	41.535
534	1.816	6.742	8.558	36.931	234.350	271.280	73.986	41.383
535	1.839	6.733	8.573	37.409	234.043	271.452	75.755	42.371
536	1.864	6.724	8.588	37.908	233.724	271.632	73.891	41.122
537	1.889	6.715	8.604	38.417	233.400	271.818	75.907	42.528
538	1.913	6.706	8.619	38.901	233.090	271.991	77.876	44.236
539	1.939	6.696	8.635	39.424	232.750	272.174	77.185	45.109
540	1.964	6.686	8.650	39.932	232.410	272.342	78.258	45.826
541	1.988	6.677	8.665	40.429	232.077	272.506	78.891	47.303
542	2.012	6.667	8.679	40.912	231.746	272.658	81.975	50.286
543	2.039	6.656	8.695	41.459	231.362	272.821	83.336	49.921
544	2.066	6.645	8.711	42.008	230.986	272.994	82.318	49.630
545	2.093	6.634	8.728	42.572	230.597	273.169	80.901	47.868
546	2.120	6.624	8.744	43.114	230.230	273.344	80.509	48.078
547	2.146	6.613	8.759	43.648	229.865	273.513	80.616	49.392
548	2.173	6.602	8.775	44.190	229.486	273.676	82.190	50.047
549	2.199	6.591	8.791	44.728	229.111	273.839	83.384	51.606
550	2.227	6.580	8.807	45.295	228.709	274.004	84.261	52.627
551	2.255	6.568	8.823	45.861	228.305	274.166	85.188	53.051
552	2.283	6.557	8.840	46.435	227.896	274.331	84.940	52.534
553	2.312	6.545	8.857	47.021	227.482	274.502	87.058	53.692
554	2.341	6.533	8.874	47.604	227.070	274.674	83.263	51.448
555	2.369	6.521	8.890	48.176	226.666	274.841	83.104	51.588
556	2.397	6.509	8.907	48.751	226.257	275.008	82.657	51.555
557	2.425	6.498	8.923	49.317	225.852	275.170	83.355	52.281
558	2.452	6.486	8.939	49.872	225.455	275.327	86.386	54.591
559	2.481	6.474	8.955	50.461	225.029	275.490	84.672	54.313
560	2.508	6.462	8.971	51.009	224.626	275.635	86.949	55.581
561	2.536	6.450	8.987	51.582	224.207	275.788	87.921	56.515
562	2.567	6.437	9.004	52.197	223.754	275.952	84.678	54.117
563	2.594	6.426	9.020	52.762	223.341	276.103	84.953	54.065
564	2.623	6.413	9.036	53.350	222.913	276.263	87.884	56.744
565	2.653	6.400	9.053	53.952	222.469	276.421	88.335	57.624
566	2.683	6.387	9.070	54.561	222.014	276.575	92.769	61.723
567	2.713	6.374	9.087	55.165	221.554	276.719	92.029	62.429
568	2.744	6.360	9.104	55.807	221.056	276.863	91.720	60.585
569	2.775	6.346	9.121	56.443	220.575	277.018	90.231	60.450
570	2.805	6.333	9.138	57.053	220.108	277.161	89.401	59.436
571	2.835	6.319	9.154	57.656	219.648	277.305	91.737	61.335
572	2.865	6.306	9.171	58.259	219.187	277.446	90.581	61.261
573	2.896	6.292	9.188	58.887	218.701	277.588	94.074	63.776
574	2.928	6.277	9.205	59.545	218.190	277.735	96.333	66.602
575	2.961	6.262	9.223	60.216	217.660	277.876	94.211	64.475
576	2.992	6.248	9.240	60.858	217.156	278.015	93.328	63.252
577	3.024	6.233	9.257	61.491	216.665	278.157	91.956	62.288
578	3.055	6.219	9.274	62.135	216.167	278.302	86.989	59.587
579	3.084	6.206	9.290	62.722	215.707	278.429	88.295	60.601
580	3.114	6.192	9.306	63.328	215.230	278.558	89.546	61.627
581	3.145	6.178	9.323	63.957	214.734	278.691	92.152	63.861
582	3.177	6.163	9.340	64.606	214.219	278.826	94.380	66.548
583	3.210	6.147	9.357	65.283	213.674	278.956	93.081	64.873
584	3.243	6.132	9.375	65.960	213.133	279.093	93.046	64.427
585	3.276	6.116	9.393	66.634	212.599	279.233	90.780	62.498
586	3.309	6.102	9.410	67.287	212.084	279.371	89.751	62.398
587	3.340	6.087	9.427	67.920	211.580	279.500	90.566	63.442
588	3.372	6.072	9.444	68.574	211.057	279.630	92.491	64.707
589	3.404	6.057	9.461	69.229	210.533	279.761	94.480	65.738
590	3.433	6.044	9.476	69.809	210.071	279.880	95.886	67.348
591	3.463	6.029	9.493	70.434	209.569	280.003	88.429	62.479
592	3.494	6.015	9.509	71.053	209.068	280.121	89.166	63.422
593	3.524	6.001	9.524	71.665	208.570	280.234	90.649	64.304
594	3.555	5.986	9.541	72.297	208.056	280.353	89.631	63.674
595	3.585	5.971	9.557	72.919	207.550	280.469	88.334	63.243
596	3.615	5.957	9.572	73.528	207.051	280.579	86.892	62.510
597	3.646	5.942	9.588	74.146	206.541	280.688	86.529	62.285
598	3.676	5.928	9.604	74.763	206.033	280.796	87.247	63.028
599	3.706	5.913	9.619	75.377	205.525	280.902	88.913	63.920
600	3.737	5.898	9.635	76.004	205.010	281.014	89.274	64.854
601	3.769	5.883	9.652	76.644	204.479	281.123	89.958	65.314
602	3.800	5.868	9.668	77.280	203.950	281.230	89.204	65.014
603	3.831	5.853	9.683	77.903	203.431	281.334	88.286	64.343
604	3.862	5.838	9.699	78.535	202.905	281.439	89.382	65.011
605	3.894	5.822	9.716	79.184	202.364	281.548	89.695	64.845
606	3.926	5.806	9.732	79.837	201.824	281.660	89.844	65.306
607	3.958	5.791	9.749	80.492	201.278	281.770	87.659	63.625
608	3.989	5.775	9.765	81.132	200.746	281.878	85.787	62.547
609	4.020	5.760	9.781	81.760	200.223	281.983	83.869	61.387
610	4.050	5.746	9.796	82.371	199.711	282.082	82.447	60.128
611	4.080	5.731	9.811	82.966	199.214	282.181	83.553	61.151
612	4.109	5.717	9.826	83.571	198.707	282.278	87.052	63.724
613	4.141	5.701	9.842	84.213	198.170	282.383	91.530	66.427
614	4.174	5.685	9.859	84.878	197.618	282.496	94.026	68.504
615	4.206	5.670	9.876	85.542	197.065	282.607	92.003	67.723
616	4.239	5.653	9.893	86.218	196.495	282.713	89.097	65.781
617	4.271	5.638	9.908	86.854	195.957	282.811	85.497	62.908
618	4.300	5.623	9.923	87.455	195.450	282.905	81.956	60.572
619	4.330	5.608	9.938	88.055	194.943	282.998	80.221	59.152
620	4.359	5.594	9.953	88.649	194.442	283.091	79.329	58.539
621	4.388	5.580	9.968	89.237	193.946	283.183	82.702	60.873
622	4.418	5.565	9.983	89.855	193.424	283.280	88.521	65.201
623	4.450	5.549	9.999	90.494	192.886	283.380	92.414	68.041
624	4.482	5.533	10.015	91.155	192.328	283.483	92.870	68.770
625	4.515	5.517	10.032	91.821	191.763	283.585	90.815	67.135
626	4.547	5.501	10.048	92.468	191.215	283.684	86.930	64.616
627	4.577	5.486	10.063	93.089	190.687	283.776	85.274	63.501
628	4.608	5.471	10.079	93.714	190.156	283.869	84.242	62.593
629	4.637	5.456	10.093	94.298	189.659	283.957	84.885	63.255
630	4.667	5.441	10.108	94.912	189.135	284.047	85.167	63.758
631	4.697	5.426	10.123	95.519	188.615	284.134	85.507	63.798
632	4.727	5.411	10.138	96.139	188.084	284.224	86.543	64.931
633	4.757	5.396	10.153	96.744	187.566	284.310	86.778	65.126
634	4.789	5.380	10.169	97.390	187.010	284.400	87.657	65.362
635	4.820	5.364	10.185	98.034	186.460	284.494	88.128	65.875
636	4.853	5.348	10.201	98.692	185.897	284.589	88.175	65.940
637	4.885	5.332	10.217	99.337	185.345	284.682	87.661	65.636
638	4.917	5.316	10.233	99.999	184.778	284.777	86.657	65.367
639	4.950	5.300	10.249	100.659	184.208	284.867	85.596	64.610
640	4.981	5.284	10.265	101.308	183.648	284.956	85.338	64.344
641	5.013	5.268	10.280	101.946	183.098	285.043	85.295	64.093
642	5.044	5.252	10.296	102.584	182.548	285.132	86.695	65.224
643	5.076	5.236	10.312	103.234	181.989	285.223	86.884	65.584
644	5.108	5.219	10.328	103.892	181.420	285.312	87.534	66.072
645	5.141	5.203	10.344	104.555	180.846	285.402	87.064	65.770
646	5.174	5.186	10.360	105.221	180.270	285.492	85.291	64.369
647	5.205	5.171	10.376	105.855	179.723	285.579	84.733	63.857
648	5.236	5.155	10.391	106.480	179.184	285.664	83.618	63.085
649	5.266	5.140	10.406	107.094	178.655	285.749	83.926	63.289
650	5.295	5.125	10.420	107.691	178.140	285.831	85.076	64.694
651	5.325	5.110	10.435	108.302	177.609	285.911	86.916	66.066
652	5.358	5.093	10.451	108.968	177.030	285.998	87.740	66.565
653	5.390	5.077	10.467	109.615	176.468	286.083	86.840	65.680
654	5.422	5.060	10.483	110.278	175.894	286.172	85.893	64.915
655	5.454	5.044	10.499	110.924	175.336	286.260	84.468	63.619
656	5.484	5.029	10.513	111.530	174.813	286.343	83.050	62.704
657	5.510	5.016	10.526	112.054	174.361	286.414	84.508	63.896
658	5.537	5.002	10.540	112.612	173.877	286.489	85.213	64.578
659	5.568	4.987	10.555	113.241	173.332	286.573	85.746	65.165
660	5.600	4.971	10.570	113.880	172.776	286.656	87.394	66.348
661	5.632	4.954	10.586	114.538	172.205	286.743	86.086	65.069
662	5.664	4.938	10.602	115.182	171.648	286.830	84.761	64.067
663	5.695	4.923	10.617	115.813	171.102	286.915	84.358	63.474
664	5.726	4.907	10.633	116.441	170.562	287.003	83.334	62.490
665	5.756	4.892	10.648	117.067	170.024	287.091	82.907	62.594
666	5.788	4.876	10.663	117.706	169.472	287.178	84.204	63.947
667	5.820	4.859	10.679	118.355	168.907	287.263	85.992	65.210
668	5.852	4.843	10.695	119.015	168.335	287.350	86.084	65.594
669	5.885	4.826	10.711	119.676	167.759	287.435	86.260	65.690
670	5.918	4.809	10.727	120.350	167.171	287.521	85.727	65.448
671	5.951	4.793	10.743	121.016	166.590	287.606	83.328	63.313
672	5.982	4.777	10.759	121.659	166.030	287.689	82.672	63.018
673	6.013	4.761	10.774	122.293	165.477	287.770	83.474	63.581
674	6.045	4.745	10.790	122.939	164.913	287.852	82.525	63.084
675	6.076	4.729	10.805	123.574	164.359	287.933	84.240	64.440
676	6.108	4.712	10.820	124.217	163.795	288.013	84.864	64.899
677	6.140	4.696	10.836	124.877	163.218	288.095	83.646	63.888
678	6.172	4.680	10.852	125.523	162.653	288.176	83.256	63.616
679	6.204	4.663	10.867	126.167	162.090	288.256	82.102	62.928
680	6.235	4.647	10.882	126.797	161.537	288.334	81.005	62.207
681	6.266	4.632	10.897	127.425	160.985	288.410	82.203	63.301
682	6.297	4.615	10.912	128.059	160.426	288.485	82.728	63.885
683	6.328	4.599	10.928	128.703	159.858	288.561	82.682	63.763
684	6.360	4.583	10.943	129.336	159.298	288.635	82.576	63.738
685	6.391	4.567	10.958	129.966	158.742	288.708	81.883	63.474
686	6.421	4.551	10.972	130.595	158.184	288.779	80.083	62.022
687	6.451	4.536	10.987	131.198	157.650	288.848	78.654	61.020
688	6.472	4.525	10.997	131.626	157.269	288.895	80.671	62.643
689	6.497	4.512	11.009	132.135	156.816	288.952	79.833	61.865
690	6.522	4.499	11.021	132.644	156.365	289.009	80.411	62.630
691	6.549	4.485	11.033	133.178	155.890	289.068	81.900	63.960
692	6.576	4.470	11.047	133.747	155.381	289.128	81.214	63.933
693	6.605	4.455	11.060	134.327	154.858	289.186	80.539	63.420
694	6.633	4.440	11.074	134.899	154.343	289.242	80.475	63.375
695	6.661	4.426	11.087	135.466	153.832	289.298	80.815	63.345
696	6.690	4.411	11.100	136.046	153.312	289.358	81.148	63.742
697	6.718	4.396	11.114	136.630	152.788	289.418	82.358	64.378
698	6.749	4.380	11.129	137.259	152.226	289.485	82.169	64.904
699	6.780	4.363	11.143	137.877	151.668	289.545	81.227	64.160
700	6.809	4.348	11.157	138.474	151.128	289.603	80.527	63.574
701	6.838	4.333	11.170	139.061	150.598	289.659	80.607	63.858
702	6.866	4.317	11.184	139.645	150.069	289.714	80.703	63.619
703	6.895	4.302	11.198	140.230	149.541	289.771	81.751	64.363
704	6.925	4.287	11.211	140.829	149.002	289.831	83.504	65.654
705	6.956	4.270	11.226	141.457	148.436	289.893	82.638	65.156
706	6.986	4.254	11.241	142.085	147.869	289.954	80.787	63.778
707	7.016	4.238	11.255	142.694	147.318	290.013	80.736	63.837
708	7.046	4.222	11.269	143.305	146.766	290.071	80.784	63.913
709	7.076	4.207	11.283	143.911	146.217	290.127	79.175	62.753
710	7.106	4.191	11.297	144.511	145.672	290.183	79.212	62.632
711	7.136	4.175	11.311	145.117	145.124	290.241	83.503	65.658
712	7.167	4.159	11.326	145.752	144.553	290.305	83.214	66.212
713	7.198	4.142	11.340	146.386	143.977	290.363	81.897	65.012
714	7.228	4.126	11.354	146.999	143.420	290.419	80.709	64.278
715	7.258	4.110	11.368	147.610	142.863	290.473	80.153	63.969
716	7.287	4.095	11.382	148.197	142.328	290.524	82.064	65.364
717	7.317	4.079	11.396	148.804	141.774	290.578	83.496	66.235
718	7.344	4.065	11.408	149.347	141.281	290.628	84.136	67.173
719	7.369	4.051	11.420	149.856	140.816	290.672	84.692	67.531
720	7.391	4.039	11.430	150.317	140.395	290.712	83.459	66.496
721	7.415	4.026	11.442	150.803	139.953	290.756	83.008	66.065
722	7.441	4.012	11.454	151.335	139.468	290.804	82.290	65.738
723	7.471	3.997	11.468	151.938	138.916	290.854	81.882	65.187
724	7.498	3.982	11.480	152.491	138.413	290.904	83.807	67.052
725	7.524	3.968	11.492	153.016	137.932	290.948	85.147	68.282
726	7.550	3.954	11.504	153.541	137.450	290.991	85.440	68.426
727	7.577	3.940	11.517	154.090	136.947	291.037	85.645	68.361
728	7.604	3.925	11.529	154.643	136.441	291.084	84.165	67.030
729	7.630	3.912	11.541	155.166	135.964	291.130	83.507	66.294
730	7.655	3.898	11.553	155.688	135.490	291.178	83.871	66.256
