Wavelength (nm) 	 Efficiency Div Wav 1 (%) 	 Efficiency Div Wav 2 (%) 	 Efficiency Div Wav total (%) 	 Jsc Div Wav 1 (A m^-2) 	 Jsc Div Wav 2 (A m^-2) 	 Jsc Div Wav total (A m^-2) 	 EQE Curve 1 (%) 	 EQE Curve 2 (%) 	Jsc 1 correction factor: 0.11138078088588836	Jsc 2 correction factor: 0.12112841760658835
400	0.000	7.235	7.235	0.000	236.729	236.729	25.882	10.421
401	0.004	7.234	7.238	0.078	236.695	236.773	28.075	11.198
402	0.008	7.233	7.241	0.167	236.656	236.823	28.702	11.252
403	0.013	7.231	7.244	0.262	236.616	236.878	28.444	11.118
404	0.017	7.230	7.247	0.353	236.577	236.930	27.922	10.934
405	0.022	7.229	7.251	0.444	236.538	236.983	27.980	11.031
406	0.026	7.228	7.254	0.534	236.500	237.033	28.449	11.121
407	0.031	7.227	7.257	0.623	236.462	237.085	29.270	11.520
408	0.035	7.225	7.260	0.713	236.423	237.136	29.922	11.689
409	0.040	7.224	7.264	0.810	236.382	237.192	30.587	11.936
410	0.045	7.223	7.268	0.917	236.337	237.254	30.901	11.984
411	0.050	7.222	7.271	1.009	236.299	237.308	31.634	12.091
412	0.055	7.220	7.275	1.115	236.255	237.370	32.048	12.294
413	0.060	7.219	7.279	1.230	236.206	237.436	32.007	12.286
414	0.066	7.217	7.283	1.340	236.160	237.500	32.555	12.373
415	0.071	7.216	7.287	1.451	236.114	237.566	32.540	12.543
416	0.077	7.214	7.292	1.567	236.066	237.633	33.401	12.745
417	0.083	7.213	7.296	1.690	236.015	237.705	33.853	13.098
418	0.089	7.211	7.300	1.812	235.964	237.776	34.349	12.912
419	0.095	7.210	7.305	1.931	235.916	237.847	34.766	13.023
420	0.101	7.208	7.309	2.057	235.865	237.922	34.381	12.797
421	0.107	7.207	7.314	2.172	235.819	237.991	34.505	12.873
422	0.113	7.205	7.319	2.303	235.766	238.069	35.146	13.136
423	0.120	7.204	7.323	2.436	235.712	238.148	35.410	13.238
424	0.126	7.202	7.328	2.566	235.659	238.225	36.157	13.215
425	0.133	7.200	7.333	2.699	235.607	238.306	35.648	13.106
426	0.139	7.199	7.338	2.834	235.552	238.386	36.716	13.488
427	0.146	7.197	7.343	2.969	235.498	238.467	37.390	13.509
428	0.153	7.195	7.348	3.104	235.445	238.549	37.327	13.529
429	0.159	7.194	7.353	3.240	235.391	238.631	36.953	13.177
430	0.165	7.192	7.358	3.365	235.343	238.708	37.920	13.420
431	0.170	7.191	7.362	3.467	235.303	238.770	39.838	14.214
432	0.175	7.190	7.365	3.565	235.264	238.829	39.411	14.112
433	0.183	7.188	7.371	3.728	235.201	238.929	39.568	14.148
434	0.191	7.186	7.377	3.881	235.142	239.022	39.555	14.036
435	0.198	7.185	7.382	4.022	235.087	239.109	40.958	14.361
436	0.206	7.183	7.388	4.183	235.025	239.209	40.583	14.384
437	0.214	7.181	7.395	4.359	234.958	239.317	40.129	14.156
438	0.223	7.179	7.402	4.538	234.890	239.427	41.610	14.590
439	0.231	7.177	7.408	4.700	234.828	239.528	43.323	14.996
440	0.239	7.175	7.414	4.864	234.766	239.630	42.659	15.210
441	0.248	7.173	7.421	5.050	234.695	239.745	42.684	14.774
442	0.257	7.170	7.428	5.234	234.626	239.860	41.932	15.075
443	0.267	7.168	7.435	5.426	234.551	239.977	44.440	15.671
444	0.277	7.166	7.443	5.635	234.471	240.105	44.982	15.582
445	0.287	7.163	7.451	5.841	234.393	240.234	45.099	15.434
446	0.298	7.161	7.459	6.057	234.313	240.370	45.522	15.747
447	0.308	7.159	7.466	6.254	234.239	240.493	46.117	15.879
448	0.319	7.156	7.475	6.481	234.155	240.636	47.116	16.291
449	0.330	7.153	7.484	6.716	234.066	240.782	46.230	16.568
450	0.342	7.151	7.492	6.948	233.976	240.924	48.360	16.868
451	0.354	7.148	7.502	7.200	233.881	241.080	46.062	16.499
452	0.366	7.145	7.511	7.449	233.784	241.233	44.720	16.358
453	0.378	7.142	7.520	7.682	233.692	241.374	46.914	17.054
454	0.389	7.139	7.528	7.909	233.602	241.511	48.121	17.666
455	0.401	7.136	7.537	8.159	233.503	241.662	49.593	18.334
456	0.414	7.133	7.547	8.416	233.400	241.816	49.802	18.782
457	0.427	7.130	7.557	8.683	233.291	241.974	50.552	18.927
458	0.440	7.126	7.567	8.957	233.179	242.137	50.156	18.843
459	0.454	7.123	7.576	9.223	233.070	242.294	49.848	19.011
460	0.467	7.120	7.586	9.489	232.960	242.449	50.941	19.269
461	0.480	7.116	7.596	9.758	232.850	242.608	52.219	19.750
462	0.494	7.113	7.607	10.045	232.731	242.777	51.178	19.645
463	0.508	7.109	7.617	10.331	232.613	242.943	51.045	19.985
464	0.522	7.105	7.627	10.617	232.490	243.107	50.024	20.150
465	0.535	7.102	7.637	10.890	232.370	243.260	49.587	19.956
466	0.549	7.098	7.647	11.157	232.253	243.410	49.956	20.273
467	0.562	7.094	7.656	11.433	232.130	243.564	50.814	20.655
468	0.575	7.091	7.666	11.702	232.012	243.713	50.463	20.751
469	0.589	7.087	7.676	11.981	231.887	243.868	50.844	21.019
470	0.603	7.083	7.686	12.264	231.760	244.024	52.734	21.719
471	0.617	7.079	7.696	12.547	231.633	244.180	51.704	21.411
472	0.631	7.075	7.706	12.831	231.504	244.335	49.099	20.650
473	0.645	7.071	7.716	13.116	231.373	244.490	52.777	22.252
474	0.659	7.067	7.726	13.410	231.239	244.649	54.510	23.050
475	0.675	7.063	7.737	13.719	231.097	244.816	52.453	22.166
476	0.690	7.058	7.748	14.027	230.956	244.983	52.008	22.259
477	0.704	7.054	7.758	14.324	230.817	245.141	54.208	23.121
478	0.720	7.050	7.769	14.634	230.673	245.308	54.315	22.959
479	0.735	7.045	7.781	14.956	230.526	245.482	54.450	23.152
480	0.751	7.041	7.792	15.275	230.378	245.653	52.704	23.004
481	0.767	7.036	7.803	15.589	230.229	245.818	51.290	22.464
482	0.782	7.032	7.813	15.895	230.083	245.979	53.327	23.210
483	0.797	7.027	7.824	16.216	229.932	246.148	54.635	23.939
484	0.813	7.022	7.836	16.541	229.777	246.318	54.498	23.911
485	0.829	7.018	7.847	16.861	229.624	246.485	54.936	24.354
486	0.845	7.013	7.858	17.184	229.468	246.652	55.336	24.565
487	0.858	7.009	7.867	17.447	229.341	246.788	56.275	25.264
488	0.873	7.004	7.877	17.747	229.194	246.942	59.903	26.276
489	0.890	6.999	7.889	18.097	229.027	247.124	60.993	26.960
490	0.906	6.994	7.901	18.432	228.866	247.298	61.333	27.247
491	0.925	6.989	7.914	18.810	228.683	247.493	61.571	27.751
492	0.943	6.983	7.926	19.174	228.505	247.679	63.288	28.064
493	0.960	6.978	7.939	19.532	228.332	247.864	64.228	28.371
494	0.980	6.972	7.952	19.922	228.144	248.066	63.831	28.488
495	0.998	6.967	7.965	20.301	227.960	248.261	64.226	29.319
496	1.018	6.961	7.979	20.707	227.759	248.466	64.141	29.516
497	1.037	6.955	7.992	21.092	227.566	248.659	62.588	28.621
498	1.056	6.949	8.005	21.478	227.375	248.853	62.805	28.533
499	1.075	6.943	8.018	21.854	227.188	249.042	65.814	30.312
500	1.094	6.937	8.031	22.249	226.991	249.240	67.746	31.042
501	1.114	6.931	8.045	22.657	226.788	249.445	67.079	30.651
502	1.133	6.925	8.058	23.049	226.593	249.642	67.476	31.156
503	1.153	6.919	8.072	23.445	226.394	249.838	70.280	32.698
504	1.174	6.912	8.086	23.877	226.176	250.053	70.368	32.800
505	1.194	6.906	8.100	24.281	225.971	250.252	66.776	30.795
506	1.214	6.900	8.114	24.693	225.764	250.457	67.439	31.733
507	1.236	6.893	8.128	25.129	225.541	250.670	69.091	32.255
508	1.256	6.886	8.143	25.553	225.326	250.878	65.154	30.647
509	1.276	6.880	8.156	25.945	225.124	251.069	62.752	30.423
510	1.295	6.874	8.169	26.344	224.914	251.257	63.499	30.588
511	1.315	6.867	8.182	26.737	224.708	251.445	60.921	29.677
512	1.334	6.861	8.195	27.122	224.503	251.625	65.638	32.281
513	1.355	6.854	8.209	27.548	224.275	251.823	67.496	33.308
514	1.375	6.847	8.222	27.961	224.054	252.015	65.457	32.592
515	1.394	6.841	8.235	28.354	223.840	252.195	69.514	34.579
516	1.415	6.834	8.249	28.785	223.608	252.393	69.791	35.125
517	1.437	6.826	8.263	29.222	223.369	252.591	70.198	35.226
518	1.455	6.820	8.275	29.581	223.173	252.754	75.224	37.230
519	1.476	6.813	8.289	30.022	222.936	252.957	71.775	36.216
520	1.496	6.806	8.303	30.430	222.712	253.142	71.919	36.776
521	1.518	6.799	8.317	30.877	222.463	253.340	72.369	36.838
522	1.541	6.791	8.332	31.334	222.210	253.544	70.448	35.909
523	1.563	6.783	8.346	31.789	221.957	253.746	72.853	37.676
524	1.585	6.776	8.361	32.234	221.706	253.940	71.886	37.659
525	1.608	6.767	8.376	32.707	221.436	254.143	70.308	36.756
526	1.631	6.759	8.390	33.168	221.174	254.343	71.825	38.079
527	1.653	6.751	8.405	33.626	220.910	254.536	73.579	38.884
528	1.674	6.744	8.418	34.037	220.674	254.711	74.665	39.712
529	1.697	6.736	8.433	34.515	220.398	254.913	73.905	39.380
530	1.721	6.727	8.448	35.010	220.111	255.121	74.095	39.702
531	1.745	6.718	8.463	35.490	219.831	255.321	73.692	39.486
532	1.770	6.709	8.479	35.993	219.538	255.531	73.062	39.997
533	1.794	6.700	8.494	36.485	219.245	255.730	73.909	40.401
534	1.816	6.692	8.508	36.931	218.980	255.910	73.986	40.644
535	1.839	6.684	8.523	37.409	218.694	256.103	75.755	41.847
536	1.864	6.674	8.538	37.908	218.395	256.303	73.891	40.862
537	1.889	6.665	8.554	38.417	218.088	256.506	75.907	41.868
538	1.913	6.656	8.569	38.901	217.799	256.699	77.876	43.223
539	1.939	6.647	8.585	39.424	217.482	256.907	77.185	43.281
540	1.964	6.637	8.601	39.932	217.172	257.105	78.258	43.895
541	1.988	6.628	8.616	40.429	216.870	257.299	78.891	44.748
542	2.012	6.619	8.630	40.912	216.572	257.484	81.975	45.846
543	2.039	6.609	8.647	41.459	216.238	257.698	83.336	47.120
544	2.066	6.598	8.664	42.008	215.901	257.909	82.318	47.268
545	2.093	6.587	8.681	42.572	215.549	258.121	80.901	46.087
546	2.120	6.577	8.697	43.114	215.212	258.327	80.509	46.843
547	2.146	6.567	8.713	43.648	214.876	258.524	80.616	46.944
548	2.173	6.556	8.729	44.190	214.532	258.722	82.190	47.520
549	2.199	6.546	8.745	44.728	214.194	258.922	83.384	48.774
550	2.227	6.535	8.762	45.295	213.833	259.128	84.261	49.198
551	2.255	6.524	8.779	45.861	213.473	259.334	85.188	50.096
552	2.283	6.513	8.796	46.435	213.106	259.541	84.940	50.089
553	2.312	6.501	8.813	47.021	212.731	259.751	87.058	51.195
554	2.341	6.490	8.831	47.604	212.357	259.962	83.263	49.637
555	2.369	6.479	8.847	48.176	211.987	260.162	83.104	49.533
556	2.397	6.467	8.864	48.751	211.614	260.365	82.657	49.416
557	2.425	6.456	8.881	49.317	211.246	260.563	83.355	49.701
558	2.452	6.445	8.897	49.872	210.886	260.758	86.386	51.483
559	2.481	6.433	8.915	50.461	210.504	260.965	84.672	51.627
560	2.508	6.422	8.930	51.009	210.141	261.150	86.949	52.230
561	2.536	6.411	8.947	51.582	209.767	261.348	87.921	52.569
562	2.567	6.398	8.965	52.197	209.366	261.563	84.678	51.352
563	2.594	6.387	8.981	52.762	208.994	261.756	84.953	51.817
564	2.623	6.375	8.998	53.350	208.604	261.954	87.884	53.472
565	2.653	6.363	9.016	53.952	208.206	262.158	88.335	53.330
566	2.683	6.351	9.034	54.561	207.807	262.368	92.769	56.298
567	2.713	6.339	9.051	55.165	207.408	262.573	92.029	56.777
568	2.744	6.325	9.070	55.807	206.977	262.784	91.720	56.837
569	2.775	6.312	9.088	56.443	206.548	262.992	90.231	55.911
570	2.805	6.300	9.105	57.053	206.138	263.190	89.401	54.858
571	2.835	6.288	9.123	57.656	205.734	263.390	91.737	56.318
572	2.865	6.275	9.140	58.259	205.332	263.591	90.581	56.193
573	2.896	6.262	9.158	58.887	204.908	263.795	94.074	57.835
574	2.928	6.249	9.177	59.545	204.468	264.014	96.333	60.139
575	2.961	6.235	9.196	60.216	204.013	264.229	94.211	59.116
576	2.992	6.222	9.214	60.858	203.574	264.433	93.328	58.623
577	3.024	6.208	9.232	61.491	203.142	264.633	91.956	57.829
578	3.055	6.195	9.250	62.135	202.702	264.837	86.989	54.964
579	3.084	6.183	9.267	62.722	202.299	265.021	88.295	56.047
580	3.114	6.170	9.284	63.328	201.881	265.209	89.546	56.497
581	3.145	6.157	9.301	63.957	201.449	265.406	92.152	58.229
582	3.177	6.143	9.320	64.606	201.003	265.609	94.380	60.082
583	3.210	6.129	9.339	65.283	200.535	265.818	93.081	59.353
584	3.243	6.114	9.358	65.960	200.065	266.025	93.046	59.545
585	3.276	6.100	9.376	66.634	199.597	266.230	90.780	58.413
586	3.309	6.086	9.395	67.287	199.139	266.426	89.751	57.892
587	3.340	6.072	9.412	67.920	198.694	266.614	90.566	58.390
588	3.372	6.058	9.430	68.574	198.235	266.809	92.491	59.548
589	3.404	6.044	9.448	69.229	197.777	267.006	94.480	60.426
590	3.433	6.032	9.465	69.809	197.374	267.183	95.886	61.886
591	3.463	6.019	9.482	70.434	196.935	267.369	88.429	57.580
592	3.494	6.005	9.499	71.053	196.497	267.550	89.166	58.002
593	3.524	5.992	9.516	71.665	196.065	267.729	90.649	59.017
594	3.555	5.978	9.533	72.297	195.616	267.914	89.631	58.268
595	3.585	5.965	9.550	72.919	195.177	268.095	88.334	57.839
596	3.615	5.952	9.567	73.528	194.743	268.271	86.892	57.025
597	3.646	5.938	9.584	74.146	194.301	268.447	86.529	56.865
598	3.676	5.925	9.601	74.763	193.860	268.623	87.247	57.668
599	3.706	5.911	9.618	75.377	193.419	268.796	88.913	58.581
600	3.737	5.897	9.635	76.004	192.970	268.974	89.274	59.160
601	3.769	5.883	9.652	76.644	192.508	269.153	89.958	59.748
602	3.800	5.869	9.669	77.280	192.049	269.330	89.204	59.256
603	3.831	5.856	9.686	77.903	191.600	269.503	88.286	58.655
604	3.862	5.842	9.703	78.535	191.143	269.678	89.382	59.322
605	3.894	5.827	9.721	79.184	190.674	269.858	89.695	59.501
606	3.926	5.813	9.739	79.837	190.203	270.040	89.844	59.692
607	3.958	5.798	9.756	80.492	189.729	270.221	87.659	58.280
608	3.989	5.784	9.774	81.132	189.267	270.399	85.787	57.002
609	4.020	5.770	9.791	81.760	188.813	270.573	83.869	55.897
610	4.050	5.757	9.807	82.371	188.370	270.741	82.447	54.792
611	4.080	5.744	9.823	82.966	187.939	270.906	83.553	55.726
612	4.109	5.730	9.840	83.571	187.501	271.072	87.052	58.053
613	4.141	5.716	9.857	84.213	187.036	271.248	91.530	60.672
614	4.174	5.701	9.875	84.878	186.556	271.434	94.026	62.377
615	4.206	5.687	9.893	85.542	186.077	271.619	92.003	61.311
616	4.239	5.672	9.911	86.218	185.588	271.806	89.097	59.381
617	4.271	5.658	9.928	86.854	185.127	271.980	85.497	57.209
618	4.300	5.644	9.945	87.455	184.688	272.143	81.956	55.005
619	4.330	5.631	9.961	88.055	184.250	272.305	80.221	53.735
620	4.359	5.618	9.977	88.649	183.817	272.466	79.329	53.354
621	4.388	5.605	9.992	89.237	183.387	272.624	82.702	55.503
622	4.418	5.591	10.009	89.855	182.937	272.792	88.521	59.364
623	4.450	5.577	10.026	90.494	182.471	272.965	92.414	61.908
624	4.482	5.562	10.044	91.155	181.989	273.145	92.870	62.221
625	4.515	5.547	10.062	91.821	181.504	273.325	90.815	60.956
626	4.547	5.533	10.079	92.468	181.031	273.500	86.930	58.598
627	4.577	5.519	10.096	93.089	180.576	273.665	85.274	57.640
628	4.608	5.505	10.113	93.714	180.117	273.830	84.242	57.064
629	4.637	5.491	10.128	94.298	179.687	273.985	84.885	57.393
630	4.667	5.478	10.145	94.912	179.235	274.147	85.167	57.925
631	4.697	5.464	10.161	95.519	178.786	274.305	85.507	58.261
632	4.727	5.450	10.177	96.139	178.326	274.466	86.543	59.062
633	4.757	5.436	10.193	96.744	177.878	274.623	86.778	59.361
634	4.789	5.421	10.210	97.390	177.397	274.788	87.657	59.788
635	4.820	5.407	10.227	98.034	176.920	274.954	88.128	60.186
636	4.853	5.392	10.245	98.692	176.431	275.123	88.175	60.070
637	4.885	5.377	10.262	99.337	175.954	275.291	87.661	60.177
638	4.917	5.362	10.279	99.999	175.459	275.458	86.657	59.884
639	4.950	5.347	10.297	100.659	174.963	275.622	85.596	59.295
640	4.981	5.332	10.314	101.308	174.475	275.782	85.338	58.986
641	5.013	5.318	10.330	101.946	173.995	275.941	85.295	58.956
642	5.044	5.303	10.347	102.584	173.515	276.099	86.695	59.819
643	5.076	5.288	10.364	103.234	173.027	276.261	86.884	60.222
644	5.108	5.273	10.381	103.892	172.532	276.423	87.534	60.791
645	5.141	5.257	10.399	104.555	172.030	276.586	87.064	60.659
646	5.174	5.242	10.416	105.221	171.526	276.748	85.291	59.413
647	5.205	5.227	10.432	105.855	171.047	276.902	84.733	59.040
648	5.236	5.213	10.449	106.480	170.573	277.053	83.618	58.330
649	5.266	5.199	10.465	107.094	170.108	277.202	83.926	58.834
650	5.295	5.185	10.480	107.691	169.652	277.343	85.076	59.666
651	5.325	5.171	10.496	108.302	169.186	277.488	86.916	60.976
652	5.358	5.155	10.513	108.968	168.679	277.647	87.740	61.626
653	5.390	5.140	10.530	109.615	168.184	277.800	86.840	60.881
654	5.422	5.124	10.547	110.278	167.679	277.957	85.893	60.439
655	5.454	5.109	10.564	110.924	167.185	278.109	84.468	59.754
656	5.484	5.095	10.579	111.530	166.719	278.249	83.050	58.819
657	5.510	5.083	10.593	112.054	166.315	278.369	84.508	59.675
658	5.537	5.070	10.607	112.612	165.887	278.498	85.213	60.214
659	5.568	5.055	10.623	113.241	165.403	278.644	85.746	60.644
660	5.600	5.040	10.640	113.880	164.911	278.792	87.394	61.719
661	5.632	5.024	10.656	114.538	164.406	278.945	86.086	60.910
662	5.664	5.009	10.673	115.182	163.911	279.093	84.761	60.088
663	5.695	4.994	10.689	115.813	163.425	279.238	84.358	59.714
664	5.726	4.980	10.705	116.441	162.942	279.383	83.334	59.039
665	5.756	4.965	10.721	117.067	162.460	279.527	82.907	59.054
666	5.788	4.950	10.738	117.706	161.964	279.671	84.204	60.038
667	5.820	4.934	10.754	118.355	161.461	279.816	85.992	61.006
668	5.852	4.919	10.771	119.015	160.952	279.967	86.084	61.450
669	5.885	4.903	10.788	119.676	160.438	280.115	86.260	61.582
670	5.918	4.887	10.805	120.350	159.915	280.265	85.727	61.247
671	5.951	4.871	10.822	121.016	159.398	280.414	83.328	59.610
672	5.982	4.856	10.838	121.659	158.897	280.556	82.672	59.157
673	6.013	4.841	10.854	122.293	158.404	280.697	83.474	59.666
674	6.045	4.826	10.871	122.939	157.902	280.841	82.525	59.238
675	6.076	4.811	10.887	123.574	157.406	280.980	84.240	60.461
676	6.108	4.795	10.903	124.217	156.904	281.121	84.864	61.137
677	6.140	4.779	10.920	124.877	156.386	281.263	83.646	60.327
678	6.172	4.764	10.936	125.523	155.880	281.403	83.256	60.093
679	6.204	4.748	10.952	126.167	155.375	281.542	82.102	59.288
680	6.235	4.733	10.968	126.797	154.880	281.677	81.005	58.695
681	6.266	4.718	10.984	127.425	154.384	281.809	82.203	59.409
682	6.297	4.703	11.000	128.059	153.886	281.945	82.728	59.961
683	6.328	4.687	11.016	128.703	153.379	282.082	82.682	60.052
684	6.360	4.672	11.032	129.336	152.879	282.215	82.576	60.070
685	6.391	4.657	11.048	129.966	152.381	282.347	81.883	59.942
686	6.421	4.642	11.063	130.595	151.879	282.474	80.083	58.592
687	6.451	4.627	11.078	131.198	151.401	282.598	78.654	57.742
688	6.472	4.617	11.089	131.626	151.059	282.686	80.671	58.929
689	6.497	4.604	11.101	132.135	150.656	282.791	79.833	58.590
690	6.522	4.592	11.114	132.644	150.250	282.895	80.411	58.786
691	6.549	4.579	11.127	133.178	149.826	283.004	81.900	60.190
692	6.576	4.565	11.141	133.747	149.371	283.118	81.214	59.930
693	6.605	4.551	11.156	134.327	148.904	283.232	80.539	59.694
694	6.633	4.537	11.170	134.899	148.444	283.343	80.475	59.370
695	6.661	4.523	11.184	135.466	147.990	283.456	80.815	59.808
696	6.690	4.509	11.198	136.046	147.524	283.570	81.148	60.255
697	6.718	4.494	11.212	136.630	147.052	283.682	82.358	60.849
698	6.749	4.479	11.228	137.259	146.547	283.806	82.169	61.380
699	6.780	4.463	11.243	137.877	146.045	283.922	81.227	60.821
700	6.809	4.448	11.257	138.474	145.559	284.033	80.527	60.395
701	6.838	4.434	11.272	139.061	145.080	284.141	80.607	60.458
702	6.866	4.419	11.286	139.645	144.604	284.249	80.703	60.278
703	6.895	4.405	11.300	140.230	144.129	284.359	81.751	60.892
704	6.925	4.390	11.315	140.829	143.645	284.474	83.504	62.144
705	6.956	4.374	11.330	141.457	143.136	284.593	82.638	61.851
706	6.986	4.359	11.345	142.085	142.625	284.710	80.787	60.687
707	7.016	4.344	11.360	142.694	142.127	284.822	80.736	60.670
708	7.046	4.328	11.375	143.305	141.628	284.933	80.784	60.609
709	7.076	4.313	11.389	143.911	141.134	285.045	79.175	59.943
710	7.106	4.298	11.404	144.511	140.640	285.151	79.212	59.751
711	7.136	4.283	11.418	145.117	140.142	285.259	83.503	62.706
712	7.167	4.267	11.434	145.752	139.624	285.375	83.214	62.764
713	7.198	4.251	11.449	146.386	139.104	285.489	81.897	61.894
714	7.228	4.236	11.464	146.999	138.600	285.599	80.709	61.130
715	7.258	4.220	11.479	147.610	138.097	285.707	80.153	60.758
716	7.287	4.206	11.493	148.197	137.614	285.811	82.064	62.115
717	7.317	4.190	11.507	148.804	137.115	285.919	83.496	63.319
718	7.344	4.177	11.520	149.347	136.667	286.014	84.136	63.965
719	7.369	4.164	11.532	149.856	136.245	286.101	84.692	64.469
720	7.391	4.152	11.543	150.317	135.864	286.181	83.459	63.744
721	7.415	4.140	11.555	150.803	135.460	286.263	83.008	63.459
722	7.441	4.126	11.568	151.335	135.018	286.354	82.290	62.843
723	7.471	4.111	11.582	151.938	134.518	286.456	81.882	63.009
724	7.498	4.097	11.595	152.491	134.055	286.547	83.807	64.331
725	7.524	4.084	11.607	153.016	133.617	286.633	85.147	65.751
726	7.550	4.070	11.620	153.541	133.176	286.716	85.440	66.219
727	7.577	4.056	11.633	154.090	132.713	286.803	85.645	66.104
728	7.604	4.042	11.646	154.643	132.248	286.891	84.165	65.227
729	7.630	4.028	11.658	155.166	131.807	286.973	83.507	64.770
730	7.655	4.015	11.670	155.688	131.366	287.054	83.871	64.744
